#GEFID= 1, 1, 2
#FILEOWNER= Geotechnical Engineering B.V.
#FILEDATE= 2024, 9, 15
#PROJECTID= 2024-001, Site Investigation Project
#COLUMN= 6
#COLUMNINFO= 1, m, Penetration length, 1
#COLUMNINFO= 2, MPa, Cone resistance, 2
#COLUMNINFO= 3, MPa, Sleeve friction, 3
#COLUMNINFO= 4, %, Friction ratio, 4
#COLUMNINFO= 5, MPa, Pore pressure u2, 6
#COLUMNINFO= 6, degrees, Inclination, 8
#XYID= 31000, 154977.34, 462866.57, 0.02, 0.02
#ZID= 31000, 3.13, 0.02
#TESTID= CPT-2024-003
#STARTDATE= 2024, 9, 15
#STARTTIME= 14, 0, 0
#MEASUREMENTTEXT= 1, CPT-2024-003
#MEASUREMENTTEXT= 2, Site Investigation
#MEASUREMENTTEXT= 4, Geotechnical Engineering B.V.
#MEASUREMENTTEXT= 6, Fugro CPT Rig Model F200
#MEASUREMENTTEXT= 9, Electronic cone type E
#MEASUREMENTVAR= 1, 20.00, m, Cone penetration depth
#MEASUREMENTVAR= 2, 2.00, cm/s, Cone penetration rate
#MEASUREMENTVAR= 4, 0.00, m, Cone pre-excavated depth
#MEASUREMENTVAR= 5, 3.13, m, Ground level reference
#MEASUREMENTVAR= 6, 3.13, m, Ground water level
#MEASUREMENTVAR= 9, 0.00, m, Final depth
#MEASUREMENTVAR= 13, 10.00, cm2, Cone surface area
#MEASUREMENTVAR= 16, 0.00, m, Cone apex height
#MEASUREMENTVAR= 20, 90.00, degrees, Cone apex angle
#COLUMNVOID= 1, -9999.99
#COLUMNVOID= 2, -9999.99
#COLUMNVOID= 3, -9999.99
#COLUMNVOID= 4, -9999.99
#COLUMNVOID= 5, -9999.99
#COLUMNVOID= 6, -9999.99
#LASTSCAN= 1
#REPORTCODE= GEF-CPT-Report, 1, 1, 2
#EOH=
  0.0000     1.2831   0.042649   3.3239   0.000000  -1.4393
  0.0200     0.7966   0.033374   4.1897   0.002516   1.4137
  0.0400     1.5208   0.081795   5.3783   0.012402  -0.1704
  0.0600     0.8463   0.047484   5.6105   0.000000  -1.4632
  0.0800     1.0716   0.053492   4.9919   0.000000   1.0000
  0.1000     1.6559   0.072617   4.3853   0.000000  -0.2811
  0.1200     1.9339   0.060796   3.1437   0.000000   0.7062
  0.1400     2.1171   0.061488   2.9043   0.000000   0.0405
  0.1600     0.7521   0.023116   3.0736   0.001343   0.3339
  0.1800     0.9981   0.038747   3.8819   0.013031   0.9983
  0.2000     1.0653   0.057410   5.3891   0.000000  -0.9296
  0.2200     0.7350   0.021761   2.9607   0.003128  -0.8363
  0.2400     1.5430   0.066348   4.3000   0.023300  -0.5873
  0.2600     1.2482   0.038590   3.0916   0.000109  -1.0695
  0.2800     1.3288   0.057973   4.3626   0.006302   0.2172
  0.3000     1.4624   0.050145   3.4290   0.026589   0.2389
  0.3200     1.0356   0.026461   2.5552   0.014213  -0.9215
  0.3400     1.9853   0.064993   3.2737   0.036134   0.9137
  0.3600     1.8765   0.072451   3.8610   0.003122   0.7923
  0.3800     1.3329   0.050193   3.7656   0.013326   0.1452
  0.4000     0.9251   0.036220   3.9151   0.003608  -0.6547
  0.4200     1.9810   0.081435   4.1107   0.012696  -1.2108
  0.4400     0.6004   0.022713   3.7827   0.010747  -1.0288
  0.4600     1.8018   0.054361   3.0170   0.011138   0.3336
  0.4800     1.0174   0.052130   5.1237   0.023000   0.5314
  0.5000     1.0014   0.040554   4.0495   0.000000  -0.6248
  0.5200     1.2650   0.066962   5.2933   0.000000   0.2300
  0.5400     1.3239   0.049257   3.7205   0.026470  -0.4475
  0.5600     1.3503   0.041835   3.0983   0.002688   1.1790
  0.5800     2.1322   0.093336   4.3775   0.000000  -0.7311
  0.6000     0.8197   0.032800   4.0014   0.000000   1.1885
  0.6200     1.5269   0.064855   4.2474   0.000000  -1.4046
  0.6400     1.6055   0.078590   4.8952   0.020627   1.3023
  0.6600     0.7460   0.038561   5.1690   0.012458  -0.9286
  0.6800     0.8482   0.036998   4.3619   0.006916  -0.0699
  0.7000     1.1352   0.033968   2.9921   0.017672   0.1557
  0.7200     0.5867   0.023172   3.9494   0.000000  -0.1375
  0.7400     0.9380   0.032208   3.4337   0.004399  -1.3581
  0.7600     1.6425   0.065555   3.9912   0.000000   1.2250
  0.7800     1.5962   0.061937   3.8803   0.020904   0.1274
  0.8000     1.8046   0.069069   3.8275   0.027424   1.1245
  0.8200     1.0674   0.054324   5.0892   0.017802  -1.1186
  0.8400     1.4335   0.048156   3.3594   0.000000  -0.1640
  0.8600     1.6517   0.051726   3.1317   0.002826  -1.3533
  0.8800     1.4605   0.049019   3.3563   0.000000  -0.4460
  0.9000     2.1761   0.101493   4.6639   0.005371   0.3408
  0.9200     0.8460   0.038687   4.5728   0.025651  -0.2954
  0.9400     2.0836   0.070816   3.3988   0.000000   0.2854
  0.9600     1.0747   0.038590   3.5909   0.000000   0.0316
  0.9800     1.9356   0.072065   3.7231   0.007967  -0.6683
  1.0000     0.8372   0.029617   3.5377   0.009413  -0.7249
  1.0200     1.6991   0.088730   5.2223   0.027806  -1.1394
  1.0400     1.2588   0.063846   5.0719   0.009556   1.4017
  1.0600     1.1328   0.039236   3.4637   0.007852  -0.4876
  1.0800     1.0774   0.052625   4.8844   0.000000  -1.0296
  1.1000     1.9008   0.084897   4.4665   0.024806   1.1792
  1.1200     2.0827   0.094934   4.5581   0.000000   0.0826
  1.1400     1.0717   0.047713   4.4520   0.023014   0.4721
  1.1600     1.2527   0.071011   5.6686   0.039750  -0.6203
  1.1800     0.7700   0.034980   4.5428   0.005797  -0.9185
  1.2000     0.9038   0.027951   3.0927   0.011156   0.8604
  1.2200     1.9727   0.088159   4.4690   0.020734   0.8225
  1.2400     1.4848   0.045870   3.0893   0.000000   0.9784
  1.2600     0.9023   0.025322   2.8064   0.000000   0.9606
  1.2800     1.4236   0.053284   3.7428   0.043430  -1.1134
  1.3000     2.0243   0.095875   4.7362   0.000000   0.4822
  1.3200     2.1666   0.068559   3.1644   0.014267  -0.8810
  1.3400     1.3435   0.063785   4.7477   0.000000   0.4184
  1.3600     1.0991   0.052113   4.7416   0.001016   1.3123
  1.3800     1.3654   0.055331   4.0522   0.021622   0.0374
  1.4000     1.2912   0.064209   4.9730   0.023616  -0.3887
  1.4200     1.9586   0.082805   4.2278   0.003183  -0.4984
  1.4400     2.0867   0.075795   3.6322   0.029591  -1.2949
  1.4600     1.7332   0.077621   4.4785   0.006466  -1.1830
  1.4800     0.9660   0.041688   4.3156   0.003006   1.2050
  1.5000     1.1559   0.051849   4.4855   0.040595   0.0275
  1.5200     1.6890   0.078280   4.6348   0.030456   0.2252
  1.5400     1.3273   0.050726   3.8218   0.018102  -0.4068
  1.5600     1.8805   0.096307   5.1213   0.000088   1.2335
  1.5800     1.0484   0.027809   2.6524   0.024311  -0.7509
  1.6000     0.7550   0.030810   4.0808   0.045312   0.0809
  1.6200     0.7263   0.030502   4.1994   0.024379   0.5506
  1.6400     1.2821   0.049330   3.8476   0.021999  -1.0872
  1.6600     1.1820   0.050631   4.2834   0.016999   1.3187
  1.6800     1.1056   0.040129   3.6296   0.008344  -1.0642
  1.7000     1.4676   0.048500   3.3047   0.022214  -1.3384
  1.7200     0.6563   0.023563   3.5904   0.001104  -1.1770
  1.7400     1.3350   0.063263   4.7389   0.013002  -0.2106
  1.7600     1.1329   0.041513   3.6642   0.034260   0.4610
  1.7800     1.1300   0.051246   4.5351   0.004314   1.1887
  1.8000     1.7621   0.067131   3.8098   0.007726  -0.3650
  1.8200     2.2084   0.082069   3.7162   0.036800  -1.2027
  1.8400     1.2754   0.044044   3.4533   0.000000   1.0072
  1.8600     1.1900   0.045082   3.7883   0.013500  -0.0085
  1.8800     0.6594   0.044061   6.6824   0.028885   0.4716
  1.9000     1.9790   0.071338   3.6047   0.037305   0.3881
  1.9200     1.8026   0.072973   4.0483   0.023844   1.3234
  1.9400     1.2115   0.051834   4.2784   0.005981  -1.3198
  1.9600     2.0430   0.095663   4.6826   0.020573   0.8960
  1.9800     1.9294   0.098304   5.0951   0.040741   0.6919
  2.0000     0.9984   0.051220   5.1301   0.000000  -1.2931
  2.0200     1.9204   0.071653   3.7311   0.000000  -0.6804
  2.0400     0.7948   0.028315   3.5626   0.021676   0.7994
  2.0600     1.4246   0.056093   3.9375   0.003029   1.1523
  2.0800     0.8693   0.030064   3.4583   0.015781  -0.4001
  2.1000     0.9875   0.040995   4.1513   0.000000  -0.8382
  2.1200     1.4714   0.045388   3.0848   0.019172   1.1014
  2.1400     1.0280   0.040232   3.9137   0.000000   1.2510
  2.1600     0.9207   0.029453   3.1990   0.006310  -1.2955
  2.1800     1.3566   0.058905   4.3421   0.000000  -0.9240
  2.2000     0.7871   0.026267   3.3374   0.057902  -1.0758
  2.2200     0.9002   0.035703   3.9661   0.041839   0.8081
  2.2400     2.0927   0.064343   3.0747   0.012323   0.5050
  2.2600     1.6771   0.061960   3.6944   0.011793  -0.0784
  2.2800     0.7688   0.023572   3.0659   0.018754  -1.3257
  2.3000     1.8673   0.055088   2.9501   0.000000  -0.0492
  2.3200     1.0337   0.047096   4.5560   0.028769  -1.1497
  2.3400     2.0272   0.100275   4.9465   0.028740   1.4871
  2.3600     0.7717   0.036352   4.7109   0.008980   0.2676
  2.3800     2.1591   0.079584   3.6861   0.035014   0.9546
  2.4000     1.7845   0.071231   3.9916   0.053565  -1.2979
  2.4200     2.0601   0.098838   4.7979   0.013617   1.4285
  2.4400     1.3242   0.048560   3.6670   0.027108   1.3688
  2.4600     1.4396   0.051086   3.5485   0.052747  -0.0508
  2.4800     2.0357   0.093928   4.6139   0.000000   0.3484
  2.5000     1.5288   0.060034   3.9268   0.002530   0.9775
  2.5200     1.2341   0.043675   3.5391   0.020832  -0.5688
  2.5400     1.5688   0.069218   4.4121   0.051617   0.9079
  2.5600     1.5673   0.064863   4.1386   0.005393   0.7820
  2.5800     1.8924   0.092516   4.8887   0.007051   0.5248
  2.6000     0.9625   0.039310   4.0841   0.087070  -0.8373
  2.6200     0.9709   0.037700   3.8831   0.038689  -0.8666
  2.6400     1.7336   0.067787   3.9103   0.051925   0.2838
  2.6600     1.7777   0.063287   3.5600   0.024726   0.8777
  2.6800     1.5013   0.053105   3.5372   0.035823  -1.3796
  2.7000     2.2612   0.085343   3.7743   0.030927  -0.1986
  2.7200     1.6214   0.078105   4.8171   0.013204   0.2790
  2.7400     2.1927   0.090201   4.1137   0.020817  -1.4402
  2.7600     1.1659   0.044041   3.7773   0.000000   0.5157
  2.7800     1.7867   0.086204   4.8249   0.086859  -0.8916
  2.8000     2.0944   0.075289   3.5947   0.007273   0.4797
  2.8200     1.6480   0.050881   3.0874   0.037630  -1.3761
  2.8400     1.1604   0.043991   3.7909   0.031793  -1.4793
  2.8600     2.1149   0.084162   3.9794   0.023096  -0.4192
  2.8800     0.8262   0.027550   3.3347   0.019218   0.6469
  2.9000     1.3240   0.052166   3.9400   0.013774   0.2411
  2.9200     1.0731   0.037413   3.4864   0.007258  -1.2735
  2.9400     2.2217   0.100689   4.5320   0.049541  -0.8510
  2.9600     2.1158   0.079641   3.7642   0.027216   0.9262
  2.9800     1.4530   0.057177   3.9352   0.001059   1.2135
  3.0000    12.4150   0.107838   0.8686   0.065535   0.2280
  3.0200    12.8623   0.174434   1.3562   0.019382  -0.7444
  3.0400    13.1060   0.187010   1.4269   0.032315  -1.3029
  3.0600    13.9274   0.200689   1.4410   0.024280   1.4544
  3.0800    14.8399   0.169048   1.1391   0.056172   0.1794
  3.1000    14.0794   0.195864   1.3911   0.004488  -0.0220
  3.1200    10.6031   0.134583   1.2693   0.000000   0.2633
  3.1400     9.7924   0.056753   0.5796   0.000000   1.1085
  3.1600     9.9269   0.118727   1.1960   0.018963  -0.5420
  3.1800    10.1170   0.079193   0.7828   0.085195   1.3048
  3.2000     8.1801   0.076084   0.9301   0.058402   1.2354
  3.2200    11.2256   0.071121   0.6336   0.043104  -1.4716
  3.2400    13.7608   0.164342   1.1943   0.160726   0.1509
  3.2600    11.1765   0.132974   1.1898   0.089603  -1.1172
  3.2800    13.2551   0.164794   1.2432   0.070674   0.3503
  3.3000    11.1227   0.073226   0.6583   0.027220   1.2265
  3.3200     9.9030   0.063128   0.6375   0.050138  -0.5928
  3.3400    11.5893   0.131855   1.1377   0.000000  -0.4628
  3.3600    10.4147   0.053723   0.5158   0.000000  -1.0966
  3.3800    13.5378   0.121517   0.8976   0.044290   0.3148
  3.4000    13.8245   0.178754   1.2930   0.053100   1.1861
  3.4200    13.1549   0.168210   1.2787   0.017810   0.7324
  3.4400    14.6126   0.153477   1.0503   0.033723  -1.3061
  3.4600    10.3390   0.059757   0.5780   0.002481   1.0581
  3.4800    13.4881   0.146423   1.0856   0.102385  -0.8598
  3.5000     8.9930   0.118817   1.3212   0.025282  -0.0330
  3.5200    14.6084   0.113810   0.7791   0.041392  -1.1422
  3.5400     9.9922   0.051235   0.5127   0.027463  -1.3400
  3.5600    15.0928   0.128247   0.8497   0.019791  -1.0602
  3.5800     8.6991   0.116405   1.3381   0.022098  -0.8729
  3.6000     9.1246   0.097296   1.0663   0.000000   0.6982
  3.6200     9.0608   0.075097   0.8288   0.000000   0.0618
  3.6400    14.8232   0.120760   0.8147   0.086222   1.2112
  3.6600    13.0484   0.171786   1.3165   0.036255  -0.8061
  3.6800    14.4353   0.082479   0.5714   0.015227   0.3277
  3.7000    13.7883   0.104565   0.7584   0.051854  -0.0246
  3.7200    10.8429   0.157181   1.4496   0.000000  -0.4969
  3.7400    11.0308   0.090803   0.8232   0.039084   0.5792
  3.7600    10.1180   0.148605   1.4687   0.114600  -0.0780
  3.7800     9.2716   0.067452   0.7275   0.109774   0.9935
  3.8000    13.1265   0.148515   1.1314   0.000000   1.2050
  3.8200    14.9776   0.091457   0.6106   0.019724  -0.4013
  3.8400    12.5359   0.093367   0.7448   0.000000  -1.4803
  3.8600    13.0226   0.095506   0.7334   0.091973   0.3049
  3.8800    13.8144   0.083295   0.6030   0.000000   0.8920
  3.9000    11.3713   0.149130   1.3115   0.153475   1.3468
  3.9200    14.0716   0.176896   1.2571   0.000000  -0.9930
  3.9400    10.5850   0.140479   1.3272   0.000000  -0.4018
  3.9600     9.2771   0.067432   0.7269   0.030193   0.1012
  3.9800     9.2729   0.068244   0.7359   0.018820  -1.4963
  4.0000    10.7824   0.077091   0.7150   0.000000  -0.1227
  4.0200    10.7186   0.064877   0.6053   0.000000   1.0007
  4.0400     9.2317   0.101732   1.1020   0.109082  -1.4854
  4.0600    10.2829   0.106845   1.0391   0.021993  -0.5145
  4.0800    10.6121   0.125158   1.1794   0.095999   1.0275
  4.1000    11.6566   0.124314   1.0665   0.072332   0.1158
  4.1200     9.6070   0.136116   1.4168   0.071126   0.1434
  4.1400    13.4373   0.084463   0.6286   0.000000   0.5017
  4.1600    14.7526   0.180512   1.2236   0.084358  -0.2692
  4.1800     9.2040   0.087717   0.9530   0.000000  -0.6839
  4.2000     9.4018   0.107105   1.1392   0.000000  -0.8605
  4.2200     8.9058   0.103213   1.1590   0.058779   0.4420
  4.2400    10.1655   0.147215   1.4482   0.025979  -1.4932
  4.2600    15.1949   0.082239   0.5412   0.013424   0.4472
  4.2800     9.5324   0.085722   0.8993   0.068474   0.6213
  4.3000     9.3049   0.093145   1.0010   0.020429   0.8501
  4.3200     8.9962   0.089874   0.9990   0.023794  -0.4967
  4.3400    13.1100   0.098465   0.7511   0.043432  -0.3378
  4.3600    12.1542   0.107203   0.8820   0.063889  -1.1539
  4.3800    10.3143   0.127083   1.2321   0.101302  -0.9689
  4.4000    15.4597   0.168943   1.0928   0.127417  -0.3549
  4.4200    12.4402   0.173642   1.3958   0.090813   1.3206
  4.4400     9.9603   0.082778   0.8311   0.089293  -1.3065
  4.4600    14.8278   0.129310   0.8721   0.000000  -0.8338
  4.4800    11.2122   0.135377   1.2074   0.002678  -1.0317
  4.5000    10.9746   0.057063   0.5200   0.001153  -1.4556
  4.5200    12.4169   0.164316   1.3233   0.050657   0.7008
  4.5400    11.8127   0.157388   1.3324   0.000000  -1.1889
  4.5600    13.4849   0.180660   1.3397   0.000000  -1.1233
  4.5800    10.8121   0.144892   1.3401   0.092774   1.1852
  4.6000    14.3348   0.143333   0.9999   0.001952  -0.0171
  4.6200    13.8224   0.178712   1.2929   0.024509  -0.6036
  4.6400    13.7817   0.113942   0.8268   0.000000  -0.7837
  4.6600     8.8396   0.131683   1.4897   0.048924  -0.3238
  4.6800    13.8470   0.193485   1.3973   0.006730  -0.6708
  4.7000     9.2164   0.082668   0.8970   0.049623   0.5536
  4.7200    15.6701   0.231892   1.4798   0.106688  -0.8622
  4.7400    12.2188   0.089675   0.7339   0.025294  -0.7318
  4.7600    12.1035   0.123210   1.0180   0.044542   0.1001
  4.7800    14.3686   0.208541   1.4514   0.045568   0.1315
  4.8000     8.9506   0.097497   1.0893   0.041063  -0.1510
  4.8200    13.1001   0.135529   1.0346   0.064627   0.1304
  4.8400    15.1993   0.098584   0.6486   0.039170   1.0974
  4.8600     9.6714   0.080066   0.8279   0.080402  -0.5879
  4.8800    15.0080   0.088937   0.5926   0.094316  -0.6722
  4.9000    15.2418   0.227221   1.4908   0.083037   0.5463
  4.9200    10.6661   0.089654   0.8406   0.000000  -0.7449
  4.9400     9.2330   0.085799   0.9293   0.060746   1.0894
  4.9600    13.8093   0.150499   1.0898   0.025105  -0.8278
  4.9800    12.9339   0.083474   0.6454   0.043445   0.1354
  5.0000    12.0646   0.065321   0.5414   0.047669   0.6287
  5.0200    14.8976   0.089405   0.6001   0.032227   0.3635
  5.0400    11.4914   0.078693   0.6848   0.000000   0.9131
  5.0600     9.9393   0.092884   0.9345   0.079583  -0.0684
  5.0800    10.6313   0.153581   1.4446   0.121704   1.1344
  5.1000     9.9929   0.112231   1.1231   0.043704  -0.1529
  5.1200    13.1521   0.132064   1.0041   0.042373   1.2294
  5.1400    15.3236   0.165310   1.0788   0.020709  -0.3021
  5.1600    15.7950   0.142700   0.9035   0.050928   0.7291
  5.1800    11.2960   0.140588   1.2446   0.129634   0.4311
  5.2000    11.5597   0.101201   0.8755   0.097104   1.4570
  5.2200    13.4968   0.072379   0.5363   0.000000  -0.3881
  5.2400    12.6677   0.126661   0.9999   0.071680  -0.6445
  5.2600    11.4755   0.109953   0.9582   0.042696   1.0785
  5.2800    13.7040   0.186998   1.3646   0.074032  -1.2473
  5.3000    15.5678   0.107062   0.6877   0.000000  -0.7372
  5.3200    10.8232   0.095538   0.8827   0.083041   1.3683
  5.3400    14.7101   0.212234   1.4428   0.036812  -0.3893
  5.3600    15.9163   0.181101   1.1378   0.062610   1.4069
  5.3800    12.0646   0.176852   1.4659   0.104217  -1.0970
  5.4000    14.3924   0.140437   0.9758   0.091348   0.4747
  5.4200    14.0829   0.119448   0.8482   0.055527   0.3048
  5.4400    14.6584   0.172997   1.1802   0.005271  -0.6789
  5.4600    11.0825   0.076644   0.6916   0.061055   1.1627
  5.4800    10.5397   0.146619   1.3911   0.097943  -1.2828
  5.5000    11.0000   0.143631   1.3057   0.071184   1.4272
  5.5200    11.4881   0.065640   0.5714   0.027742  -0.9279
  5.5400    13.6471   0.136724   1.0019   0.091795   0.2262
  5.5600    12.2133   0.067919   0.5561   0.067374  -0.8119
  5.5800    13.4004   0.167844   1.2525   0.127332   0.1020
  5.6000    11.0088   0.097112   0.8821   0.010898   0.2354
  5.6200    11.0741   0.076422   0.6901   0.039505  -1.3669
  5.6400    15.7576   0.099240   0.6298   0.000000  -0.0810
  5.6600    10.0101   0.085985   0.8590   0.000000  -0.2928
  5.6800     9.6146   0.078089   0.8122   0.129253   0.2783
  5.7000    15.7507   0.113097   0.7180   0.137965  -0.3898
  5.7200    15.3894   0.212846   1.3831   0.000000   1.0975
  5.7400    11.7950   0.171648   1.4553   0.081462   0.1922
  5.7600    13.3464   0.084876   0.6359   0.110925  -1.1163
  5.7800    12.7780   0.108097   0.8460   0.064917  -1.1362
  5.8000    14.3830   0.178586   1.2416   0.000000  -0.1035
  5.8200    10.1587   0.060813   0.5986   0.026382  -1.4228
  5.8400    15.2992   0.093516   0.6113   0.026476   0.4475
  5.8600    16.1988   0.190016   1.1730   0.111260   1.3975
  5.8800    11.6860   0.117972   1.0095   0.078014   0.7312
  5.9000    12.1065   0.133221   1.1004   0.051350   0.2024
  5.9200    12.9172   0.111494   0.8631   0.000487   0.0876
  5.9400    14.5952   0.216429   1.4829   0.029751   1.3710
  5.9600    13.3051   0.095842   0.7203   0.021889  -1.3282
  5.9800    12.9902   0.110758   0.8526   0.082852  -0.7963
  6.0000     9.9778   0.125974   1.2625   0.054316  -0.1818
  6.0200    14.1567   0.190918   1.3486   0.000000  -0.6395
  6.0400    11.6604   0.162874   1.3968   0.022211  -0.1805
  6.0600    12.5363   0.158728   1.2662   0.004383  -0.0278
  6.0800     9.6323   0.111478   1.1573   0.122315  -0.7097
  6.1000    10.0604   0.107687   1.0704   0.140062  -1.4741
  6.1200    13.7781   0.170396   1.2367   0.171320  -1.4330
  6.1400    11.7784   0.171171   1.4533   0.013953  -1.3197
  6.1600    15.7981   0.089695   0.5678   0.000000  -0.6768
  6.1800     9.5495   0.113563   1.1892   0.020034  -0.3662
  6.2000    10.1405   0.100139   0.9875   0.120575   0.6438
  6.2200    13.4574   0.114699   0.8523   0.064754  -1.2906
  6.2400    15.1526   0.192498   1.2704   0.053446   1.0655
  6.2600    14.9743   0.149061   0.9954   0.121754  -0.2706
  6.2800    12.8603   0.069846   0.5431   0.088243  -1.1240
  6.3000    13.3258   0.078507   0.5891   0.105706  -0.7442
  6.3200    13.8876   0.193984   1.3968   0.077473   1.2580
  6.3400    14.9160   0.081963   0.5495   0.093247   0.0881
  6.3600    12.4203   0.090203   0.7263   0.046620  -0.8038
  6.3800    14.9046   0.124961   0.8384   0.069367   0.5824
  6.4000    15.2572   0.195315   1.2801   0.062982  -0.9147
  6.4200    16.2697   0.207287   1.2741   0.034494  -0.1066
  6.4400    14.6641   0.131534   0.8970   0.083315  -1.0241
  6.4600     9.8848   0.075101   0.7598   0.118608  -0.2500
  6.4800    10.9265   0.080094   0.7330   0.031003   1.4890
  6.5000    10.3075   0.120758   1.1716   0.016223  -0.4337
  6.5200    14.3272   0.132029   0.9215   0.058868  -0.4097
  6.5400    16.3216   0.230781   1.4140   0.038284  -0.1679
  6.5600    14.6802   0.180442   1.2292   0.000000  -0.8544
  6.5800    10.6261   0.072835   0.6854   0.133437   1.3869
  6.6000    14.1500   0.136413   0.9640   0.022589  -1.2294
  6.6200    14.3898   0.155033   1.0774   0.120550  -1.3554
  6.6400    12.3156   0.084161   0.6834   0.080225  -0.2240
  6.6600    10.5814   0.100784   0.9525   0.082769  -1.0149
  6.6800    16.7215   0.181762   1.0870   0.068197  -0.3400
  6.7000    13.2398   0.192557   1.4544   0.039847  -0.6299
  6.7200    15.7699   0.100429   0.6368   0.154813   0.7646
  6.7400    13.2691   0.071761   0.5408   0.076776  -1.2166
  6.7600    10.3795   0.106438   1.0255   0.126593   0.7834
  6.7800    14.8357   0.178823   1.2054   0.000000  -0.0138
  6.8000    11.1601   0.121231   1.0863   0.025261   0.0671
  6.8200    15.1538   0.076489   0.5048   0.124876   0.3584
  6.8400    14.5834   0.152751   1.0474   0.080067  -0.6259
  6.8600    12.7890   0.075363   0.5893   0.106236  -0.1345
  6.8800    15.2070   0.189080   1.2434   0.102161   0.1341
  6.9000    15.2639   0.184745   1.2103   0.055638  -0.3478
  6.9200    13.2673   0.186529   1.4059   0.067733  -0.6374
  6.9400    16.5911   0.118246   0.7127   0.141482   0.0065
  6.9600    14.6391   0.115496   0.7890   0.000000   1.4969
  6.9800    16.7938   0.085291   0.5079   0.042584   0.3473
  7.0000    15.3416   0.229410   1.4953   0.189149   1.2403
  7.0200    11.7040   0.146495   1.2517   0.142915  -0.3045
  7.0400    16.8005   0.166617   0.9917   0.069616   1.3622
  7.0600    12.9718   0.112009   0.8635   0.063745   1.2756
  7.0800    11.8742   0.068567   0.5774   0.069026  -0.6780
  7.1000    15.5856   0.197040   1.2642   0.034162  -1.4991
  7.1200    12.0499   0.137150   1.1382   0.041249  -0.3899
  7.1400    10.3566   0.108676   1.0493   0.070550   1.2806
  7.1600    12.5434   0.142361   1.1350   0.070939   0.8036
  7.1800    15.6545   0.135146   0.8633   0.088421  -1.3068
  7.2000    16.8728   0.146837   0.8703   0.025990   1.1259
  7.2200    13.4828   0.190352   1.4118   0.035532  -1.3875
  7.2400    15.0580   0.093760   0.6227   0.125879   1.0535
  7.2600    15.4582   0.115044   0.7442   0.004667  -0.4021
  7.2800    12.3901   0.144587   1.1670   0.142993   1.1903
  7.3000    13.4318   0.139415   1.0379   0.034272   0.2739
  7.3200    12.6223   0.063016   0.4992   0.089880   0.0484
  7.3400    14.6610   0.168700   1.1507   0.045870   0.3921
  7.3600    11.9008   0.129525   1.0884   0.098255  -1.4150
  7.3800    13.2689   0.187469   1.4128   0.072510  -1.0214
  7.4000    16.9774   0.128602   0.7575   0.108394   0.4844
  7.4200    13.9679   0.160381   1.1482   0.000000   1.1866
  7.4400    12.3511   0.180784   1.4637   0.037511  -1.0586
  7.4600    11.6300   0.101711   0.8746   0.000000  -0.9950
  7.4800    11.4897   0.106411   0.9261   0.176821   1.2023
  7.5000    10.3962   0.094731   0.9112   0.024807  -0.9013
  7.5200    10.9479   0.139331   1.2727   0.117854  -0.0751
  7.5400    17.1215   0.203394   1.1879   0.000000   1.4756
  7.5600    14.2308   0.196893   1.3836   0.046458   0.5734
  7.5800    16.6846   0.226319   1.3565   0.064240   0.8777
  7.6000    15.1593   0.116596   0.7691   0.142669  -0.2670
  7.6200    16.0552   0.104544   0.6512   0.062896  -0.8197
  7.6400    12.7548   0.073480   0.5761   0.128463  -1.0763
  7.6600    10.5142   0.104806   0.9968   0.162583  -1.4232
  7.6800    11.9054   0.087886   0.7382   0.028681  -0.0324
  7.7000    14.5962   0.167872   1.1501   0.059262  -0.0162
  7.7200    13.0259   0.138018   1.0596   0.084341   1.0824
  7.7400    12.5720   0.155258   1.2350   0.139692   0.6800
  7.7600    14.9422   0.112616   0.7537   0.000000  -0.5231
  7.7800    11.0007   0.153647   1.3967   0.089791  -0.5255
  7.8000    15.0893   0.118977   0.7885   0.154930   1.3168
  7.8200    16.6307   0.210518   1.2658   0.066274   1.3245
  7.8400    10.4359   0.156831   1.5028   0.019049   1.4425
  7.8600    13.2392   0.092379   0.6978   0.017920   0.0523
  7.8800    12.5566   0.124374   0.9905   0.010791   0.6709
  7.9000    11.2479   0.057326   0.5097   0.008606  -0.2410
  7.9200    12.8761   0.142138   1.1039   0.000000   1.1340
  7.9400    16.0485   0.192178   1.1975   0.062446  -0.5937
  7.9600    16.8161   0.184716   1.0985   0.077032  -1.0855
  7.9800    16.0992   0.105671   0.6564   0.008530  -0.2135
  8.0000     4.8791   0.210230   4.3088   0.068302  -1.4433
  8.0200     5.6231   0.243630   4.3327   0.066970  -0.6158
  8.0400     3.7408   0.197593   5.2822   0.063591   0.9660
  8.0600     4.9630   0.262005   5.2792   0.065394   0.9085
  8.0800     5.1116   0.224782   4.3975   0.093303   0.1990
  8.1000     4.6134   0.191226   4.1450   0.074520   0.0802
  8.1200     5.7754   0.343510   5.9478   0.085286  -1.1342
  8.1400     3.4905   0.149185   4.2740   0.088327   0.8687
  8.1600     3.8833   0.212390   5.4692   0.162936   0.5031
  8.1800     3.2137   0.167519   5.2127   0.081860   0.7906
  8.2000     5.1124   0.316287   6.1866   0.064840   0.6872
  8.2200     5.9497   0.259049   4.3540   0.113466   0.0036
  8.2400     4.8855   0.294336   6.0246   0.093044  -0.4253
  8.2600     3.3861   0.145019   4.2828   0.128473   0.4986
  8.2800     4.4262   0.260373   5.8826   0.115462  -0.6487
  8.3000     3.6759   0.183805   5.0003   0.095306   1.2027
  8.3200     5.1205   0.252282   4.9269   0.132202   0.3053
  8.3400     4.1039   0.190102   4.6322   0.050008   0.3733
  8.3600     3.8105   0.207275   5.4396   0.071824  -0.7635
  8.3800     5.2299   0.296616   5.6715   0.141648  -0.8147
  8.4000     3.8233   0.234729   6.1394   0.087662   1.0858
  8.4200     5.6317   0.261485   4.6431   0.111473  -0.1986
  8.4400     3.3630   0.155634   4.6279   0.080883  -1.3291
  8.4600     4.2656   0.224031   5.2520   0.047098   0.7932
  8.4800     4.4602   0.179907   4.0336   0.000000   1.1629
  8.5000     4.4083   0.244561   5.5478   0.049693  -0.0852
  8.5200     3.8166   0.192834   5.0525   0.138258  -1.3093
  8.5400     3.5835   0.187792   5.2405   0.095260  -1.4348
  8.5600     3.8721   0.215243   5.5588   0.078068  -0.1334
  8.5800     3.2761   0.151080   4.6115   0.081885   0.2190
  8.6000     3.8178   0.215794   5.6523   0.066549   0.7790
  8.6200     4.3736   0.207568   4.7460   0.117084   0.4551
  8.6400     5.8261   0.343141   5.8897   0.073780  -1.3250
  8.6600     5.5789   0.233205   4.1801   0.111156   0.2705
  8.6800     5.6801   0.317298   5.5861   0.051557   0.6349
  8.7000     5.9802   0.313727   5.2461   0.084190   0.0888
  8.7200     3.6594   0.215885   5.8995   0.083682   1.4714
  8.7400     3.8750   0.160918   4.1527   0.097972  -1.1137
  8.7600     5.4131   0.315548   5.8293   0.096038   0.7998
  8.7800     5.4475   0.267443   4.9095   0.082325   0.8471
  8.8000     5.9823   0.237013   3.9619   0.014340  -0.7125
  8.8200     3.3884   0.148307   4.3769   0.085982   0.9414
  8.8400     4.4126   0.250436   5.6755   0.057249   1.1650
  8.8600     3.9440   0.214817   5.4466   0.044215  -1.3628
  8.8800     5.7720   0.262364   4.5455   0.100858   0.6252
  8.9000     4.9121   0.218365   4.4455   0.091673  -1.1637
  8.9200     5.5836   0.243462   4.3603   0.127357   1.2077
  8.9400     5.5603   0.277529   4.9913   0.119675  -0.5561
  8.9600     5.7753   0.310341   5.3736   0.076122   0.2554
  8.9800     4.0343   0.185847   4.6067   0.089203   1.4763
  9.0000     5.0712   0.289909   5.7168   0.048969   0.1212
  9.0200     5.8175   0.262666   4.5151   0.040055  -1.3838
  9.0400     5.4111   0.282656   5.2236   0.096304  -0.4366
  9.0600     3.8232   0.221949   5.8053   0.127308  -0.5641
  9.0800     3.7105   0.158051   4.2595   0.074109   1.3406
  9.1000     6.2884   0.359475   5.7165   0.041800   0.8106
  9.1200     5.3298   0.229264   4.3016   0.077654  -1.0882
  9.1400     5.7743   0.254710   4.4111   0.111332   0.1594
  9.1600     3.8860   0.198596   5.1105   0.132749  -0.0348
  9.1800     4.7020   0.229122   4.8729   0.074041  -1.1687
  9.2000     5.8608   0.301916   5.1515   0.065740   0.6923
  9.2200     3.5352   0.177467   5.0200   0.128088  -1.3473
  9.2400     4.9976   0.242827   4.8589   0.080885  -1.4951
  9.2600     4.0064   0.184873   4.6145   0.093837   0.4279
  9.2800     4.4695   0.212291   4.7497   0.038117  -1.3274
  9.3000     5.3662   0.292830   5.4569   0.098070  -1.4793
  9.3200     3.8495   0.210206   5.4606   0.092166   0.0817
  9.3400     6.0522   0.330237   5.4565   0.098403  -0.3491
  9.3600     4.1705   0.246668   5.9147   0.092428  -0.9941
  9.3800     5.6373   0.338333   6.0017   0.100583  -0.1660
  9.4000     5.0664   0.275802   5.4437   0.161647  -0.0826
  9.4200     5.9674   0.291252   4.8807   0.084595  -0.7645
  9.4400     5.3835   0.239684   4.4522   0.088771   0.0743
  9.4600     3.9002   0.174252   4.4678   0.079652   1.4676
  9.4800     5.1787   0.306916   5.9266   0.123230  -0.0056
  9.5000     5.8088   0.329728   5.6763   0.055399   1.4555
  9.5200     5.7169   0.325232   5.6889   0.102198  -0.0469
  9.5400     4.4515   0.230914   5.1873   0.119267  -0.4411
  9.5600     3.4585   0.172664   4.9925   0.141392   0.1901
  9.5800     5.9575   0.258851   4.3450   0.080571   1.2373
  9.6000     3.4905   0.191073   5.4740   0.171542  -1.2440
  9.6200     5.4008   0.305216   5.6514   0.086987  -1.0057
  9.6400     5.1132   0.241797   4.7289   0.115167  -0.2694
  9.6600     4.6565   0.234680   5.0398   0.080207  -0.7396
  9.6800     3.6070   0.185448   5.1413   0.024448  -0.7698
  9.7000     3.7395   0.194960   5.2136   0.041585  -1.2055
  9.7200     4.3654   0.238968   5.4741   0.105830   0.3438
  9.7400     3.6846   0.160309   4.3508   0.111080   1.4797
  9.7600     5.0939   0.248499   4.8783   0.135884  -0.7071
  9.7800     4.2889   0.212268   4.9492   0.073443  -0.2164
  9.8000     3.6064   0.171657   4.7598   0.098431  -1.0872
  9.8200     5.2024   0.250113   4.8077   0.078556  -1.3512
  9.8400     4.6169   0.242872   5.2605   0.073159   0.6340
  9.8600     5.6938   0.331601   5.8239   0.047151  -0.1987
  9.8800     5.4069   0.279903   5.1768   0.118159   0.8932
  9.9000     5.2915   0.290932   5.4981   0.099767  -1.4176
  9.9200     6.1956   0.335781   5.4197   0.042741  -0.3473
  9.9400     5.7522   0.283537   4.9292   0.092901  -1.2611
  9.9600     5.7164   0.321866   5.6305   0.082833  -1.2768
  9.9800     4.2843   0.194757   4.5459   0.112517   1.4037
 10.0000     4.1009   0.236246   5.7608   0.105684  -0.6242
 10.0200     3.9420   0.216497   5.4920   0.120292  -1.2481
 10.0400     4.9428   0.222425   4.5000   0.072739   1.4588
 10.0600     5.7950   0.305319   5.2687   0.116635  -0.0060
 10.0800     3.5599   0.193022   5.4221   0.060607  -0.4779
 10.1000     6.3789   0.279965   4.3890   0.077529  -0.6570
 10.1200     5.0739   0.228934   4.5120   0.133456  -1.2970
 10.1400     4.8770   0.223258   4.5778   0.039033  -0.7769
 10.1600     4.3600   0.229485   5.2635   0.072735  -1.4854
 10.1800     5.3797   0.222809   4.1417   0.090690   1.3282
 10.2000     5.1591   0.251268   4.8704   0.095666   1.4226
 10.2200     5.9681   0.337884   5.6615   0.086903   0.8783
 10.2400     5.4780   0.285633   5.2141   0.089367  -0.6752
 10.2600     3.7333   0.195297   5.2313   0.152584   0.1129
 10.2800     3.7613   0.219342   5.8316   0.095078  -1.3429
 10.3000     6.0306   0.251131   4.1643   0.124820   0.3299
 10.3200     4.2589   0.183650   4.3122   0.116450  -0.7100
 10.3400     5.6457   0.315716   5.5921   0.167028  -0.0626
 10.3600     3.6879   0.150127   4.0709   0.079129   0.5881
 10.3800     6.3198   0.281041   4.4470   0.110518  -0.2165
 10.4000     4.6195   0.251889   5.4528   0.094058  -0.9901
 10.4200     4.4335   0.257964   5.8185   0.135139  -1.2103
 10.4400     5.2196   0.285158   5.4632   0.159870  -0.4688
 10.4600     4.7674   0.246662   5.1739   0.104843   1.1456
 10.4800     5.0314   0.236920   4.7089   0.086057   1.2799
 10.5000     4.7968   0.248501   5.1805   0.092659   1.2932
 10.5200     6.4743   0.289862   4.4771   0.107592   0.9185
 10.5400     6.3228   0.309579   4.8962   0.137327   0.3526
 10.5600     6.2058   0.319960   5.1558   0.127795  -0.6574
 10.5800     4.6711   0.229477   4.9127   0.091074  -0.3899
 10.6000     4.2793   0.206242   4.8196   0.111884  -0.5498
 10.6200     5.5793   0.319533   5.7271   0.099739  -0.3551
 10.6400     6.3207   0.303234   4.7974   0.038632  -0.0026
 10.6600     4.5203   0.214021   4.7347   0.121494   0.9485
 10.6800     4.3129   0.185016   4.2899   0.152100  -1.4723
 10.7000     5.9223   0.256558   4.3321   0.144485  -0.6105
 10.7200     3.4561   0.193805   5.6075   0.125485  -0.9171
 10.7400     3.7421   0.176477   4.7160   0.132847   0.5321
 10.7600     3.6528   0.163335   4.4716   0.111024  -0.4547
 10.7800     5.3173   0.247713   4.6586   0.113829  -1.1144
 10.8000     4.5221   0.193419   4.2772   0.079814   1.0506
 10.8200     4.2401   0.225806   5.3255   0.197388  -0.6056
 10.8400     5.5641   0.329841   5.9280   0.119879  -0.5536
 10.8600     5.9471   0.334837   5.6303   0.131130  -0.1266
 10.8800     6.6286   0.337273   5.0882   0.108578   0.2682
 10.9000     4.8007   0.199283   4.1512   0.136973   0.9890
 10.9200     6.3105   0.289273   4.5840   0.182314   0.8896
 10.9400     5.3122   0.277905   5.2315   0.041519   1.1537
 10.9600     4.8410   0.241407   4.9867   0.126966   1.2792
 10.9800     4.5257   0.223893   4.9472   0.097706  -1.4531
 11.0000     5.8358   0.358926   6.1504   0.101095   0.2630
 11.0200     4.2540   0.249663   5.8689   0.178548   0.2612
 11.0400     5.4815   0.278784   5.0859   0.085518   1.4981
 11.0600     3.9768   0.187730   4.7206   0.089560  -0.9571
 11.0800     5.2749   0.236046   4.4749   0.081518   1.1760
 11.1000     5.5586   0.314968   5.6663   0.076555   0.0853
 11.1200     5.7546   0.260814   4.5322   0.064146  -0.5405
 11.1400     4.8535   0.273342   5.6319   0.111217   0.1023
 11.1600     5.1542   0.209804   4.0706   0.069217  -0.1287
 11.1800     4.9842   0.274186   5.5012   0.131068   0.9697
 11.2000     5.0472   0.250336   4.9599   0.157867   0.0675
 11.2200     5.4282   0.316248   5.8261   0.073500   1.2718
 11.2400     5.2574   0.212814   4.0479   0.097595  -0.3976
 11.2600     6.3633   0.324008   5.0919   0.107623  -1.2588
 11.2800     5.4891   0.260165   4.7397   0.117118  -0.4662
 11.3000     6.1136   0.354781   5.8031   0.069448   0.5118
 11.3200     4.3483   0.199338   4.5843   0.131505  -1.4599
 11.3400     6.6764   0.333574   4.9963   0.166136   0.7190
 11.3600     5.6158   0.263206   4.6869   0.110903   0.3050
 11.3800     4.5774   0.275006   6.0079   0.101932  -0.8554
 11.4000     4.5625   0.243674   5.3408   0.127941   1.1521
 11.4200     4.1764   0.224355   5.3720   0.096799  -1.3144
 11.4400     4.4122   0.245881   5.5727   0.091385   1.1574
 11.4600     5.2750   0.325695   6.1743   0.110588  -0.3799
 11.4800     5.7536   0.255546   4.4415   0.082409  -1.2551
 11.5000     4.1494   0.230335   5.5510   0.088110   0.8966
 11.5200     5.8467   0.334888   5.7278   0.162994  -0.5194
 11.5400     4.2662   0.224129   5.2535   0.123021  -1.1649
 11.5600     6.5077   0.284067   4.3651   0.114687   1.2475
 11.5800     4.1347   0.189857   4.5918   0.102110   0.9385
 11.6000     6.4361   0.316280   4.9141   0.130588   0.5631
 11.6200     4.9950   0.268069   5.3667   0.047102  -1.4477
 11.6400     5.9037   0.268212   4.5431   0.162251   0.8090
 11.6600     6.6547   0.368409   5.5361   0.093941   0.0850
 11.6800     4.9249   0.261548   5.3108   0.088656  -1.1742
 11.7000     5.2251   0.283896   5.4333   0.120103   0.4870
 11.7200     6.5432   0.385068   5.8850   0.134766  -1.4855
 11.7400     5.7342   0.297964   5.1963   0.109888   1.1100
 11.7600     6.5383   0.375968   5.7503   0.131601  -0.0818
 11.7800     5.4806   0.236032   4.3067   0.151564  -1.3534
 11.8000     4.7183   0.245865   5.2109   0.122010   1.3408
 11.8200     3.9808   0.166031   4.1708   0.099926   0.9719
 11.8400     4.3028   0.222266   5.1656   0.082345   1.1121
 11.8600     4.3504   0.211061   4.8516   0.112950  -0.9445
 11.8800     5.2128   0.304897   5.8490   0.185474   0.3865
 11.9000     4.8151   0.193406   4.0166   0.117509  -0.1363
 11.9200     6.4230   0.262715   4.0903   0.142248  -0.4000
 11.9400     4.3216   0.197049   4.5596   0.137251  -1.1528
 11.9600     6.1625   0.266554   4.3255   0.165802  -1.0501
 11.9800     6.8153   0.301027   4.4170   0.124711  -0.0770
 12.0000    17.5944   0.154113   0.8759   0.190426   0.2505
 12.0200    18.1936   0.255239   1.4029   0.237914  -1.2636
 12.0400    23.9345   0.301002   1.2576   0.042113  -0.2434
 12.0600    26.5804   0.431057   1.6217   0.141658   0.9431
 12.0800    18.5466   0.153588   0.8281   0.108926   0.7498
 12.1000    26.2566   0.276599   1.0534   0.083016   1.3722
 12.1200    26.8988   0.465800   1.7317   0.103870  -0.1289
 12.1400    15.3422   0.149756   0.9761   0.131208   1.0903
 12.1600    28.0713   0.248501   0.8853   0.128693   1.0658
 12.1800    26.9091   0.261299   0.9710   0.084935   0.3548
 12.2000    15.1734   0.177094   1.1671   0.119067  -0.5346
 12.2200    26.5013   0.451880   1.7051   0.062528   1.0017
 12.2400    23.2196   0.306417   1.3196   0.096671   0.1859
 12.2600    25.4540   0.304344   1.1957   0.193158  -0.2274
 12.2800    20.8736   0.343940   1.6477   0.164775   0.1752
 12.3000    19.0427   0.207892   1.0917   0.124960  -0.1802
 12.3200    25.6029   0.254694   0.9948   0.074744   1.0823
 12.3400    29.3916   0.456219   1.5522   0.094206  -0.9076
 12.3600    21.1665   0.220661   1.0425   0.054403  -0.4911
 12.3800    25.5013   0.306923   1.2036   0.237030  -0.3519
 12.4000    29.0314   0.450775   1.5527   0.077129   0.7901
 12.4200    21.3859   0.193208   0.9034   0.085032  -1.2618
 12.4400    16.8826   0.159836   0.9467   0.230513   0.0740
 12.4600    18.4155   0.280045   1.5207   0.113269  -0.3826
 12.4800    28.2211   0.493578   1.7490   0.106470   0.7257
 12.5000    23.4758   0.309820   1.3197   0.210056  -0.4006
 12.5200    19.9256   0.176635   0.8865   0.150153   0.7346
 12.5400    20.5400   0.284073   1.3830   0.162747   0.1208
 12.5600    27.5886   0.232712   0.8435   0.142034   0.7244
 12.5800    17.0125   0.188547   1.1083   0.093469  -0.1806
 12.6000    30.1479   0.396937   1.3166   0.146441   0.8687
 12.6200    23.4517   0.360628   1.5377   0.192302   0.5926
 12.6400    20.5318   0.174289   0.8489   0.189722   0.7643
 12.6600    23.6059   0.374439   1.5862   0.114746  -1.4283
 12.6800    29.5889   0.290991   0.9834   0.051208   0.9421
 12.7000    29.7756   0.502048   1.6861   0.118173   0.9088
 12.7200    21.3144   0.330739   1.5517   0.143298  -0.0929
 12.7400    19.1203   0.222792   1.1652   0.099091  -0.9288
 12.7600    19.4828   0.353134   1.8125   0.110599   1.4911
 12.7800    28.8105   0.449134   1.5589   0.134676  -0.6599
 12.8000    27.7212   0.333261   1.2022   0.104182   1.2792
 12.8200    20.8484   0.329655   1.5812   0.135456   0.3106
 12.8400    27.2631   0.382524   1.4031   0.047357   1.4618
 12.8600    22.5433   0.371192   1.6466   0.164668  -0.6843
 12.8800    15.6746   0.227328   1.4503   0.175564  -1.3702
 12.9000    20.2555   0.292480   1.4440   0.102501   0.7285
 12.9200    20.7708   0.254512   1.2253   0.162351   0.6646
 12.9400    16.9055   0.219249   1.2969   0.138931   1.2944
 12.9600    22.2075   0.393954   1.7740   0.178455  -0.4477
 12.9800    16.7244   0.182601   1.0918   0.231382   1.4103
 13.0000    30.3775   0.386319   1.2717   0.184153   0.1346
 13.0200    24.2773   0.387935   1.5979   0.212212  -1.3306
 13.0400    18.1453   0.146901   0.8096   0.001014   0.6836
 13.0600    25.9557   0.457820   1.7638   0.219499  -0.1946
 13.0800    23.7943   0.281041   1.1811   0.131254   0.4355
 13.1000    23.3873   0.355673   1.5208   0.121047  -0.5491
 13.1200    25.8442   0.376878   1.4583   0.246600  -0.9605
 13.1400    25.4042   0.388337   1.5286   0.152948  -0.7393
 13.1600    24.8493   0.380150   1.5298   0.113582  -0.5058
 13.1800    30.4308   0.357850   1.1759   0.249129   0.7501
 13.2000    28.6405   0.315770   1.1025   0.161403   0.5974
 13.2200    24.3121   0.403246   1.6586   0.139436  -0.0746
 13.2400    17.8871   0.182846   1.0222   0.196577   0.5615
 13.2600    23.1016   0.183635   0.7949   0.159052   0.9759
 13.2800    25.3016   0.262709   1.0383   0.070555   1.2519
 13.3000    17.8977   0.236948   1.3239   0.094015  -0.7395
 13.3200    26.0375   0.343454   1.3191   0.148670  -0.5888
 13.3400    18.3167   0.212236   1.1587   0.155767  -0.8765
 13.3600    30.9472   0.523786   1.6925   0.121092   0.2918
 13.3800    17.0803   0.246438   1.4428   0.169297   0.8896
 13.4000    26.4279   0.370881   1.4034   0.197592  -1.0761
 13.4200    19.8615   0.301280   1.5169   0.166742   0.6380
 13.4400    23.9615   0.246533   1.0289   0.031643   1.3528
 13.4600    21.3057   0.264122   1.2397   0.130337  -0.0850
 13.4800    22.6253   0.257068   1.1362   0.020794   0.5471
 13.5000    23.2191   0.214634   0.9244   0.187041   0.0714
 13.5200    24.0647   0.289096   1.2013   0.131124   0.3204
 13.5400    17.2417   0.205175   1.1900   0.128740  -0.6567
 13.5600    16.2125   0.255254   1.5744   0.150283   0.0691
 13.5800    16.4295   0.239459   1.4575   0.141370  -0.3614
 13.6000    16.4587   0.150735   0.9158   0.129395  -0.1472
 13.6200    20.9516   0.272743   1.3018   0.223988  -1.3322
 13.6400    27.5595   0.408287   1.4815   0.173400   0.0999
 13.6600    21.9828   0.262199   1.1927   0.124268  -0.7783
 13.6800    28.4713   0.417035   1.4648   0.112649   1.2146
 13.7000    24.1248   0.368944   1.5293   0.041225  -1.1169
 13.7200    24.3607   0.427803   1.7561   0.091179   1.1227
 13.7400    17.4368   0.279041   1.6003   0.142339   0.4272
 13.7600    17.3675   0.309689   1.7831   0.160578   0.4946
 13.7800    23.1516   0.327389   1.4141   0.076568   0.8185
 13.8000    29.9760   0.280221   0.9348   0.096780  -0.2809
 13.8200    30.0405   0.285808   0.9514   0.112880  -1.4283
 13.8400    17.9192   0.164365   0.9173   0.132821  -0.7926
 13.8600    22.5434   0.205105   0.9098   0.062917  -0.9888
 13.8800    19.9765   0.318522   1.5945   0.125787   0.0145
 13.9000    26.7817   0.483707   1.8061   0.143936   0.6205
 13.9200    21.5229   0.352559   1.6381   0.009235  -1.0319
 13.9400    17.4825   0.192813   1.1029   0.171011   0.4850
 13.9600    29.0727   0.520062   1.7888   0.119675   0.6627
 13.9800    24.7502   0.331870   1.3409   0.218250  -0.9797
 14.0000    18.6288   0.279185   1.4987   0.162904   0.3290
 14.0200    19.4334   0.256382   1.3193   0.063739   0.4431
 14.0400    20.2495   0.291638   1.4402   0.114114  -0.4552
 14.0600    30.6741   0.328243   1.0701   0.161055  -0.3598
 14.0800    20.4401   0.204964   1.0028   0.190027  -1.3662
 14.1000    20.1342   0.273369   1.3577   0.069699   0.5937
 14.1200    27.8984   0.344121   1.2335   0.252674   0.6123
 14.1400    24.8266   0.200354   0.8070   0.177599  -0.5111
 14.1600    21.9752   0.308212   1.4025   0.119042   0.0609
 14.1800    29.3911   0.399736   1.3601   0.126298  -0.7628
 14.2000    29.8494   0.275608   0.9233   0.102241  -0.6641
 14.2200    17.1964   0.178171   1.0361   0.172266   0.4775
 14.2400    27.6883   0.390045   1.4087   0.223191  -1.0616
 14.2600    30.7869   0.466526   1.5153   0.090713  -0.9156
 14.2800    30.0096   0.397483   1.3245   0.060598  -1.1406
 14.3000    28.0739   0.500213   1.7818   0.195594   0.7855
 14.3200    31.2181   0.482286   1.5449   0.153353  -0.4754
 14.3400    23.9947   0.373540   1.5568   0.130467   0.1023
 14.3600    25.6116   0.361421   1.4112   0.194507  -0.6031
 14.3800    18.7985   0.292136   1.5540   0.190844  -1.1648
 14.4000    24.0593   0.196994   0.8188   0.116884   0.8644
 14.4200    23.8544   0.308601   1.2937   0.107553  -0.4078
 14.4400    25.4579   0.229599   0.9019   0.160780   0.9459
 14.4600    27.3631   0.271661   0.9928   0.127541  -1.0845
 14.4800    21.6812   0.288305   1.3297   0.043958   0.9376
 14.5000    26.2974   0.301814   1.1477   0.091234  -1.4601
 14.5200    24.2607   0.296458   1.2220   0.096704  -0.1717
 14.5400    22.3289   0.358830   1.6070   0.027823  -0.5700
 14.5600    22.2008   0.400177   1.8025   0.066540   1.2475
 14.5800    25.0494   0.222768   0.8893   0.113074   1.0965
 14.6000    24.3039   0.272662   1.1219   0.090281   1.4360
 14.6200    18.9474   0.258677   1.3652   0.037718   1.3808
 14.6400    24.8674   0.299265   1.2034   0.266474  -0.3507
 14.6600    28.0063   0.228893   0.8173   0.059780  -1.0923
 14.6800    30.1308   0.444472   1.4751   0.111895   0.6407
 14.7000    25.6259   0.256792   1.0021   0.257762  -0.3045
 14.7200    23.3424   0.206051   0.8827   0.021286   0.2785
 14.7400    26.9168   0.379267   1.4090   0.184299   0.6399
 14.7600    27.8311   0.373995   1.3438   0.154507  -1.4664
 14.7800    17.3342   0.141595   0.8169   0.047985   1.0243
 14.8000    26.4793   0.243095   0.9181   0.263378  -0.8165
 14.8200    18.3139   0.238863   1.3043   0.159377  -1.2569
 14.8400    21.9497   0.330429   1.5054   0.132777  -1.0947
 14.8600    31.5017   0.505469   1.6046   0.085122   1.1930
 14.8800    30.3095   0.429144   1.4159   0.082863   0.4861
 14.9000    18.0447   0.173556   0.9618   0.155419   0.6401
 14.9200    25.9581   0.250150   0.9637   0.203407  -0.2773
 14.9400    27.4567   0.348718   1.2701   0.250253  -0.3345
 14.9600    29.1840   0.407422   1.3960   0.168909  -1.2946
 14.9800    29.8846   0.513093   1.7169   0.229880   0.4318
 15.0000    22.6593   0.304509   1.3439   0.126601  -0.9148
 15.0200    18.5794   0.284702   1.5324   0.016013   1.0824
 15.0400    21.2373   0.366039   1.7236   0.260382   0.5812
 15.0600    18.8687   0.270774   1.4350   0.122194  -1.3378
 15.0800    30.2443   0.401113   1.3262   0.136167   0.7541
 15.1000    32.0122   0.396019   1.2371   0.276229   0.1210
 15.1200    31.9613   0.319499   0.9996   0.163859   0.2423
 15.1400    19.6122   0.196182   1.0003   0.182998  -1.1438
 15.1600    23.4757   0.246673   1.0508   0.121323  -1.0123
 15.1800    22.5690   0.313709   1.3900   0.132219  -1.2326
 15.2000    19.8406   0.346094   1.7444   0.204801  -1.2394
 15.2200    28.3795   0.401989   1.4165   0.032349   1.2548
 15.2400    28.3716   0.470895   1.6597   0.202580  -1.1811
 15.2600    20.9697   0.261038   1.2448   0.035345   0.1967
 15.2800    26.4077   0.346952   1.3138   0.240942  -0.5134
 15.3000    28.3328   0.275442   0.9722   0.163957   1.4497
 15.3200    21.8482   0.384786   1.7612   0.160942   0.2316
 15.3400    23.6467   0.367920   1.5559   0.143282  -0.2999
 15.3600    32.4534   0.560870   1.7282   0.294056  -1.4647
 15.3800    22.0986   0.214228   0.9694   0.080444  -0.5866
 15.4000    28.2442   0.387186   1.3709   0.195887  -0.9123
 15.4200    25.8537   0.296334   1.1462   0.231511   0.3991
 15.4400    25.4348   0.341258   1.3417   0.148166  -0.6385
 15.4600    22.0103   0.268567   1.2202   0.094072   0.0129
 15.4800    25.3696   0.318996   1.2574   0.161711  -1.3225
 15.5000    20.2855   0.267702   1.3197   0.214339   0.5662
 15.5200    22.3616   0.206749   0.9246   0.137111  -1.3966
 15.5400    19.9446   0.307584   1.5422   0.111749  -0.5070
 15.5600    28.5298   0.395926   1.3878   0.152487   1.0268
 15.5800    26.8675   0.431289   1.6052   0.196559  -0.4978
 15.6000    26.1974   0.262546   1.0022   0.265986  -0.4327
 15.6200    23.4234   0.188497   0.8047   0.232188  -0.8516
 15.6400    28.5155   0.413997   1.4518   0.142438   0.0086
 15.6600    23.3002   0.370690   1.5909   0.068685  -0.9037
 15.6800    26.7346   0.286800   1.0728   0.152373   1.2132
 15.7000    31.3998   0.391112   1.2456   0.133125  -1.3595
 15.7200    18.9370   0.161724   0.8540   0.054487  -0.1797
 15.7400    26.7167   0.424537   1.5890   0.168298  -1.3478
 15.7600    21.0841   0.293923   1.3941   0.254403   0.8327
 15.7800    26.3043   0.343261   1.3050   0.282875  -1.0646
 15.8000    22.7612   0.364620   1.6019   0.233627   0.1282
 15.8200    30.5982   0.350254   1.1447   0.180942   0.5960
 15.8400    26.1366   0.337981   1.2931   0.169242  -0.3997
 15.8600    28.3552   0.341181   1.2032   0.071323   0.4942
 15.8800    25.5159   0.317719   1.2452   0.234869   1.2168
 15.9000    29.1921   0.327852   1.1231   0.244284  -0.4098
 15.9200    26.3236   0.417523   1.5861   0.090510   0.1271
 15.9400    19.5472   0.202243   1.0346   0.196348  -0.5417
 15.9600    26.3632   0.397794   1.5089   0.100289  -1.4289
 15.9800    31.8194   0.408906   1.2851   0.188271   1.4481
 16.0000    19.9626   0.272407   1.3646   0.103988   0.3231
 16.0200    32.4071   0.556680   1.7178   0.107129   0.5366
 16.0400    22.6669   0.287627   1.2689   0.159579  -0.9181
 16.0600    31.7856   0.435956   1.3716   0.191709   1.4975
 16.0800    23.5602   0.323661   1.3738   0.173535  -0.6791
 16.1000    31.1495   0.392610   1.2604   0.223258  -1.4111
 16.1200    31.0602   0.364504   1.1735   0.141032   0.0090
 16.1400    18.8717   0.181535   0.9619   0.099421  -0.1684
 16.1600    22.9335   0.306838   1.3379   0.000000  -0.0994
 16.1800    26.1913   0.353299   1.3489   0.139371  -0.3305
 16.2000    30.2349   0.509057   1.6837   0.110728  -0.3697
 16.2200    25.0122   0.382778   1.5304   0.157811   0.3927
 16.2400    24.0632   0.353175   1.4677   0.287257  -1.4462
 16.2600    24.6491   0.214517   0.8703   0.173738   0.4616
 16.2800    32.1146   0.352306   1.0970   0.220727  -0.9891
 16.3000    30.0340   0.488889   1.6278   0.145008   0.2430
 16.3200    29.4413   0.476890   1.6198   0.190733  -0.9740
 16.3400    32.9955   0.290812   0.8814   0.083738   0.0298
 16.3600    23.7965   0.383357   1.6110   0.165252   0.4331
 16.3800    19.7413   0.333145   1.6876   0.143099   0.2434
 16.4000    28.7138   0.330569   1.1513   0.157449   1.2780
 16.4200    28.4599   0.253903   0.8921   0.280859   1.2233
 16.4400    19.9241   0.225043   1.1295   0.151753  -1.0641
 16.4600    32.6952   0.559328   1.7107   0.129517  -0.6439
 16.4800    19.9923   0.234705   1.1740   0.055545   0.0491
 16.5000    25.3422   0.393474   1.5526   0.208692  -0.5565
 16.5200    26.5394   0.406918   1.5333   0.141981  -0.2889
 16.5400    18.9833   0.340180   1.7920   0.147198  -0.7594
 16.5600    29.1094   0.457729   1.5724   0.188389   0.9242
 16.5800    32.5873   0.294386   0.9034   0.177122   0.3960
 16.6000    25.6171   0.217862   0.8505   0.204952   0.5836
 16.6200    20.2262   0.201788   0.9977   0.237393   1.3207
 16.6400    24.5761   0.280086   1.1397   0.251505   0.1575
 16.6600    22.3371   0.311868   1.3962   0.200754  -0.8064
 16.6800    21.3199   0.370939   1.7399   0.218717  -0.7954
 16.7000    30.9957   0.526094   1.6973   0.080310   0.1770
 16.7200    28.2176   0.321620   1.1398   0.120869   0.8760
 16.7400    21.1076   0.300502   1.4237   0.252388   0.2723
 16.7600    29.6072   0.399994   1.3510   0.180103  -0.3297
 16.7800    30.6395   0.497616   1.6241   0.185816   0.2098
 16.8000    19.0783   0.280712   1.4714   0.219803   0.3546
 16.8200    33.8926   0.336972   0.9942   0.076292  -1.4747
 16.8400    26.4291   0.312039   1.1807   0.198799  -0.5457
 16.8600    24.0881   0.357872   1.4857   0.167533   0.3299
 16.8800    30.6882   0.270712   0.8821   0.199401   0.4641
 16.9000    28.2369   0.308351   1.0920   0.074500  -0.0131
 16.9200    19.8815   0.270904   1.3626   0.193816   1.4262
 16.9400    28.0613   0.363662   1.2960   0.219372   0.7239
 16.9600    20.7143   0.363503   1.7548   0.171495  -1.4523
 16.9800    19.7019   0.349419   1.7735   0.069039  -0.0826
 17.0000    23.1084   0.378094   1.6362   0.058429   0.3028
 17.0200    26.5948   0.477690   1.7962   0.142919   0.6806
 17.0400    25.1803   0.326797   1.2978   0.146575   0.3638
 17.0600    26.7693   0.332062   1.2405   0.164084   0.7162
 17.0800    28.1135   0.442531   1.5741   0.187312  -0.0509
 17.1000    23.9337   0.415980   1.7380   0.227599   0.5645
 17.1200    21.6849   0.215950   0.9959   0.183401  -0.9199
 17.1400    21.0643   0.295435   1.4025   0.082533  -1.1110
 17.1600    23.5763   0.406628   1.7247   0.128478   1.1054
 17.1800    28.6028   0.253133   0.8850   0.088000  -0.2141
 17.2000    32.0681   0.560313   1.7473   0.181412  -0.8630
 17.2200    24.3935   0.324568   1.3306   0.217769   1.1896
 17.2400    31.6156   0.499482   1.5799   0.172283  -0.7285
 17.2600    21.8887   0.183094   0.8365   0.205842   1.1630
 17.2800    24.7276   0.434195   1.7559   0.162873   0.3545
 17.3000    20.5075   0.222144   1.0832   0.296721   0.1052
 17.3200    28.4867   0.400148   1.4047   0.086695  -0.2047
 17.3400    25.7508   0.428473   1.6639   0.009440   1.2880
 17.3600    30.4624   0.517705   1.6995   0.280500   0.3279
 17.3800    25.2649   0.351944   1.3930   0.271816  -0.2073
 17.4000    19.8132   0.229002   1.1558   0.114702  -1.2167
 17.4200    28.2911   0.480479   1.6983   0.271126  -1.2836
 17.4400    19.9592   0.318964   1.5981   0.139851   0.7445
 17.4600    24.1553   0.342315   1.4171   0.181947  -1.1004
 17.4800    25.3561   0.377153   1.4874   0.140911   0.6026
 17.5000    27.4862   0.259116   0.9427   0.097710   1.4668
 17.5200    31.1374   0.463938   1.4900   0.178289   0.1062
 17.5400    28.5782   0.362080   1.2670   0.113500  -0.5883
 17.5600    28.9396   0.352198   1.2170   0.236290   1.4538
 17.5800    30.9275   0.259801   0.8400   0.155072  -0.2297
 17.6000    19.7544   0.248607   1.2585   0.253634   0.6232
 17.6200    23.0108   0.198030   0.8606   0.277481   1.3633
 17.6400    19.7213   0.279082   1.4151   0.091627  -0.3259
 17.6600    23.5109   0.212378   0.9033   0.164751   0.8338
 17.6800    25.2855   0.284276   1.1243   0.210001   1.1634
 17.7000    28.6654   0.507076   1.7689   0.121250  -1.1658
 17.7200    20.5664   0.252791   1.2291   0.303488  -0.4888
 17.7400    21.6674   0.182451   0.8421   0.198109  -0.2177
 17.7600    24.6737   0.257094   1.0420   0.283294   0.3804
 17.7800    19.9119   0.163580   0.8215   0.145381   1.1385
 17.8000    24.3430   0.275622   1.1322   0.166737   1.4867
 17.8200    21.1313   0.314057   1.4862   0.157574   0.3639
 17.8400    29.2846   0.323676   1.1053   0.074975   0.2892
 17.8600    22.3230   0.343007   1.5366   0.291696  -0.9272
 17.8800    32.7390   0.546178   1.6683   0.132261  -1.4831
 17.9000    28.2154   0.472965   1.6763   0.167372   0.4039
 17.9200    30.9387   0.366673   1.1852   0.188920   0.3230
 17.9400    20.8578   0.214159   1.0268   0.213295  -0.9938
 17.9600    28.0474   0.411368   1.4667   0.185133   0.2739
 17.9800    26.5401   0.253848   0.9565   0.106365  -0.9854
 18.0000    33.5316   0.497941   1.4850   0.147548   0.6776
 18.0200    22.1885   0.289181   1.3033   0.203026   0.1293
 18.0400    23.4461   0.232162   0.9902   0.111461  -0.0028
 18.0600    20.2706   0.251118   1.2388   0.065540   1.1590
 18.0800    26.6193   0.212882   0.7997   0.224183  -0.0585
 18.1000    33.9277   0.379990   1.1200   0.215418  -0.9633
 18.1200    20.2791   0.190321   0.9385   0.187012  -0.1100
 18.1400    30.6428   0.517808   1.6898   0.198585  -1.2424
 18.1600    26.3483   0.393885   1.4949   0.073948  -0.4664
 18.1800    31.1206   0.364619   1.1716   0.160730   0.6297
 18.2000    32.6106   0.568189   1.7423   0.163778  -0.6448
 18.2200    24.0303   0.352240   1.4658   0.202498  -1.1756
 18.2400    27.8564   0.399128   1.4328   0.182833  -0.9606
 18.2600    32.6151   0.262012   0.8033   0.068269   1.2708
 18.2800    29.7435   0.307413   1.0335   0.086194   0.5612
 18.3000    27.2297   0.478205   1.7562   0.212898   0.9244
 18.3200    30.7185   0.480794   1.5652   0.159258  -1.3492
 18.3400    26.3888   0.474103   1.7966   0.201866  -1.2815
 18.3600    30.4456   0.273216   0.8974   0.239416   0.4669
 18.3800    26.2541   0.219387   0.8356   0.283463  -0.3889
 18.4000    34.5288   0.568513   1.6465   0.120864   0.2770
 18.4200    34.5550   0.479953   1.3890   0.183226  -0.2762
 18.4400    31.6250   0.548452   1.7342   0.170581  -0.6068
 18.4600    32.1651   0.390340   1.2136   0.325066  -1.2814
 18.4800    27.8103   0.343407   1.2348   0.246984  -0.1671
 18.5000    23.6859   0.211556   0.8932   0.223445  -0.6910
 18.5200    30.4014   0.417360   1.3728   0.241234  -0.6927
 18.5400    22.9866   0.387469   1.6856   0.230352  -0.3991
 18.5600    27.7315   0.277062   0.9991   0.231794   1.0648
 18.5800    27.7391   0.448489   1.6168   0.212098   0.3165
 18.6000    30.2779   0.441999   1.4598   0.217445  -0.1890
 18.6200    22.5339   0.261370   1.1599   0.118097  -0.3443
 18.6400    25.4215   0.297467   1.1701   0.125754   0.3535
 18.6600    22.0757   0.258786   1.1723   0.249222  -0.6955
 18.6800    20.6358   0.362827   1.7582   0.260675  -0.4516
 18.7000    33.2588   0.543181   1.6332   0.105892  -0.9404
 18.7200    22.6776   0.289846   1.2781   0.293583  -0.7725
 18.7400    28.4729   0.425079   1.4929   0.217714   0.8311
 18.7600    24.7821   0.280090   1.1302   0.144612   1.3260
 18.7800    30.4853   0.514143   1.6865   0.274066  -0.7763
 18.8000    24.8103   0.447333   1.8030   0.179710  -0.8096
 18.8200    32.1359   0.267394   0.8321   0.185845  -0.2302
 18.8400    21.4182   0.209474   0.9780   0.192003   0.9913
 18.8600    32.8150   0.282135   0.8598   0.237281   1.3135
 18.8800    32.1704   0.558639   1.7365   0.171152   1.3416
 18.9000    22.0128   0.202157   0.9184   0.167071  -0.5878
 18.9200    34.8615   0.486671   1.3960   0.194330  -1.0466
 18.9400    32.2347   0.485127   1.5050   0.136037  -0.1655
 18.9600    29.8982   0.335775   1.1231   0.248380  -0.6951
 18.9800    31.6281   0.535003   1.6915   0.183331   1.1463
 19.0000    34.3225   0.300898   0.8767   0.182782  -1.4571
 19.0200    25.2163   0.404134   1.6027   0.283598   0.2328
 19.0400    30.5443   0.291422   0.9541   0.107849  -1.1180
 19.0600    31.0976   0.351759   1.1311   0.200036   0.1806
 19.0800    27.9138   0.257322   0.9218   0.060612  -1.4774
 19.1000    29.9487   0.331054   1.1054   0.179874   0.3649
 19.1200    26.2793   0.415021   1.5793   0.129124   0.7745
 19.1400    28.7737   0.345066   1.1992   0.111555  -0.8462
 19.1600    26.0684   0.451702   1.7328   0.181730   0.5234
 19.1800    21.9863   0.366572   1.6673   0.117730  -0.8155
 19.2000    33.6426   0.349588   1.0391   0.174531   0.5414
 19.2200    32.7899   0.512191   1.5620   0.233302  -1.2210
 19.2400    21.5636   0.364159   1.6888   0.106381  -1.3427
 19.2600    32.5243   0.438854   1.3493   0.218634   0.2159
 19.2800    32.3824   0.526163   1.6248   0.154942  -0.3807
 19.3000    26.9070   0.462023   1.7171   0.177458  -1.1045
 19.3200    22.2732   0.355737   1.5972   0.356630   1.1440
 19.3400    35.6979   0.541057   1.5157   0.219221  -1.1312
 19.3600    32.9024   0.370841   1.1271   0.182510  -0.1039
 19.3800    26.4422   0.239728   0.9066   0.188623  -0.6439
 19.4000    28.0692   0.373716   1.3314   0.325900  -0.3615
 19.4200    26.3474   0.217727   0.8264   0.117528  -0.5216
 19.4400    32.2744   0.325408   1.0083   0.139543   0.7700
 19.4600    25.7620   0.255653   0.9924   0.266214  -0.8616
 19.4800    32.8723   0.318792   0.9698   0.205813  -1.1459
 19.5000    22.5879   0.293952   1.3014   0.187274   0.5786
 19.5200    23.1462   0.382702   1.6534   0.158820   0.4847
 19.5400    26.6270   0.272779   1.0244   0.197654  -1.3463
 19.5600    27.9358   0.241246   0.8636   0.223389  -1.1955
 19.5800    24.7997   0.441757   1.7813   0.263172   0.6566
 19.6000    22.8184   0.250967   1.0998   0.198990   0.4275
 19.6200    22.9633   0.333038   1.4503   0.196676  -0.6415
 19.6400    23.7226   0.244306   1.0298   0.185755  -1.1499
 19.6600    22.7799   0.249820   1.0967   0.129681   1.3822
 19.6800    35.5537   0.521227   1.4660   0.159987  -0.7211
 19.7000    35.7914   0.510579   1.4265   0.240918  -1.1254
 19.7200    24.1920   0.258688   1.0693   0.174927  -0.9562
 19.7400    23.0675   0.244686   1.0607   0.194837  -0.5164
 19.7600    33.9846   0.403485   1.1873   0.211195   0.6229
 19.7800    33.2755   0.417938   1.2560   0.200459   0.4660
 19.8000    21.6113   0.350439   1.6216   0.234453   0.8129
 19.8200    31.1667   0.414668   1.3305   0.233236   1.1226
 19.8400    34.7490   0.505934   1.4560   0.169031   0.1764
 19.8600    22.8795   0.347655   1.5195   0.205630  -0.4125
 19.8800    31.1872   0.551147   1.7672   0.244616  -0.2371
 19.9000    30.2893   0.255412   0.8432   0.078521  -0.4767
 19.9200    32.6017   0.378850   1.1621   0.170399   0.5569
 19.9400    22.9107   0.305451   1.3332   0.241667  -0.2707
 19.9600    33.6673   0.479971   1.4256   0.306397   0.0971
 19.9800    27.8065   0.254134   0.9139   0.076861   1.1100
 20.0000    29.5612   0.348090   1.1775   0.178081   0.2973
