#GEFID= 1, 1, 2
#FILEOWNER= Geotechnical Engineering B.V.
#FILEDATE= 2024, 9, 15
#PROJECTID= 2024-001, Site Investigation Project
#COLUMN= 6
#COLUMNINFO= 1, m, Penetration length, 1
#COLUMNINFO= 2, MPa, Cone resistance, 2
#COLUMNINFO= 3, MPa, Sleeve friction, 3
#COLUMNINFO= 4, %, Friction ratio, 4
#COLUMNINFO= 5, MPa, Pore pressure u2, 6
#COLUMNINFO= 6, degrees, Inclination, 8
#XYID= 31000, 154864.81, 462868.28, 0.02, 0.02
#ZID= 31000, 2.06, 0.02
#TESTID= CPT-2024-001
#STARTDATE= 2024, 9, 15
#STARTTIME= 9, 0, 0
#MEASUREMENTTEXT= 1, CPT-2024-001
#MEASUREMENTTEXT= 2, Site Investigation
#MEASUREMENTTEXT= 4, Geotechnical Engineering B.V.
#MEASUREMENTTEXT= 6, Fugro CPT Rig Model F200
#MEASUREMENTTEXT= 9, Electronic cone type E
#MEASUREMENTVAR= 1, 20.00, m, Cone penetration depth
#MEASUREMENTVAR= 2, 2.00, cm/s, Cone penetration rate
#MEASUREMENTVAR= 4, 0.00, m, Cone pre-excavated depth
#MEASUREMENTVAR= 5, 2.06, m, Ground level reference
#MEASUREMENTVAR= 6, 2.06, m, Ground water level
#MEASUREMENTVAR= 9, 0.00, m, Final depth
#MEASUREMENTVAR= 13, 10.00, cm2, Cone surface area
#MEASUREMENTVAR= 16, 0.00, m, Cone apex height
#MEASUREMENTVAR= 20, 90.00, degrees, Cone apex angle
#COLUMNVOID= 1, -9999.99
#COLUMNVOID= 2, -9999.99
#COLUMNVOID= 3, -9999.99
#COLUMNVOID= 4, -9999.99
#COLUMNVOID= 5, -9999.99
#COLUMNVOID= 6, -9999.99
#LASTSCAN= 1
#REPORTCODE= GEF-CPT-Report, 1, 1, 2
#EOH=
  0.0000     1.5492   0.057159   3.6895   0.034339   0.3273
  0.0200     0.9127   0.035743   3.9160   0.013807   1.0841
  0.0400     0.7782   0.021994   2.8261   0.024632  -1.0084
  0.0600     1.6288   0.058176   3.5716   0.000000   1.0143
  0.0800     1.1916   0.064306   5.3965   0.017911  -0.7886
  0.1000     2.0313   0.094473   4.6508   0.033556  -1.0046
  0.1200     1.5063   0.046682   3.0990   0.026338  -0.3577
  0.1400     0.9472   0.044320   4.6793   0.021134   0.0893
  0.1600     1.3882   0.049995   3.6014   0.030794  -0.0553
  0.1800     1.5904   0.071324   4.4847   0.000000   0.7461
  0.2000     1.3529   0.063359   4.6831   0.000000   0.0175
  0.2200     0.9817   0.048618   4.9524   0.000000  -0.8326
  0.2400     1.8274   0.079780   4.3657   0.038255  -0.9514
  0.2600     2.0029   0.089851   4.4860   0.000000   1.2391
  0.2800     0.9522   0.043446   4.5627   0.000000  -0.2785
  0.3000     0.8645   0.026154   3.0254   0.000000  -0.4901
  0.3200     1.3304   0.055579   4.1777   0.008916   0.6373
  0.3400     1.6535   0.056412   3.4116   0.034376  -0.2265
  0.3600     1.2567   0.059563   4.7397   0.000000  -0.9279
  0.3800     1.8007   0.057661   3.2021   0.037865   0.0145
  0.4000     0.9179   0.028961   3.1551   0.035836  -0.4153
  0.4200     1.5143   0.047031   3.1058   0.010016  -1.3602
  0.4400     1.9155   0.078406   4.0933   0.000000  -0.4547
  0.4600     0.9015   0.052062   5.7752   0.005181   1.0906
  0.4800     1.6658   0.070917   4.2571   0.038550  -0.4971
  0.5000     1.4406   0.055109   3.8255   0.018124  -0.2646
  0.5200     1.1193   0.050746   4.5339   0.007248   1.0300
  0.5400     0.5152   0.022815   4.4286   0.000873  -0.5877
  0.5600     0.6644   0.028817   4.3375   0.051848   0.2951
  0.5800     1.1724   0.053002   4.5209   0.000000   0.5662
  0.6000     1.1777   0.046273   3.9290   0.027428   1.4404
  0.6200     1.4712   0.059687   4.0569   0.010864   0.1635
  0.6400     1.3802   0.054403   3.9417   0.000000  -0.7651
  0.6600     0.6673   0.033154   4.9685   0.001523  -0.5842
  0.6800     1.1455   0.058034   5.0664   0.011577   1.1465
  0.7000     1.7518   0.056405   3.2198   0.010616  -0.1912
  0.7200     0.8632   0.043450   5.0336   0.017712  -0.9454
  0.7400     1.4781   0.052196   3.5314   0.007340  -1.3469
  0.7600     1.8178   0.064898   3.5702   0.024905  -0.8948
  0.7800     0.6047   0.028416   4.6989   0.000000   1.0973
  0.8000     0.7772   0.035620   4.5830   0.000000   0.6923
  0.8200     0.6106   0.026805   4.3897   0.012641   0.7908
  0.8400     1.6722   0.057410   3.4331   0.023062   0.3847
  0.8600     0.7191   0.039161   5.4456   0.000000   0.8030
  0.8800     1.5846   0.060662   3.8282   0.025227   1.3870
  0.9000     0.8853   0.033716   3.8083   0.025595   1.4663
  0.9200     2.0128   0.059731   2.9676   0.025469   1.2619
  0.9400     1.1494   0.043639   3.7965   0.023438   0.1423
  0.9600     1.5649   0.076536   4.8908   0.000000   0.4571
  0.9800     1.1672   0.046705   4.0013   0.000000   0.1993
  1.0000     1.6336   0.051384   3.1455   0.039768  -0.1531
  1.0200     1.9726   0.084853   4.3017   0.009845   0.8387
  1.0400     1.2751   0.037649   2.9527   0.007611   0.3608
  1.0600     1.5224   0.074520   4.8949   0.038612  -0.4226
  1.0800     0.7694   0.035137   4.5668   0.000000  -1.1016
  1.1000     1.2136   0.051256   4.2234   0.025642   0.2988
  1.1200     1.0560   0.041573   3.9370   0.000000   0.1830
  1.1400     2.0069   0.063489   3.1636   0.005362  -0.2116
  1.1600     0.7177   0.037049   5.1622   0.022484   1.4487
  1.1800     1.5836   0.071405   4.5090   0.045655   0.9739
  1.2000     2.0341   0.083891   4.1242   0.047775  -1.1521
  1.2200     1.9816   0.062714   3.1648   0.013297   1.0444
  1.2400     0.7745   0.028771   3.7149   0.053109   0.4940
  1.2600     1.1400   0.043002   3.7720   0.000000   1.1873
  1.2800     0.9496   0.034762   3.6606   0.006346   0.1717
  1.3000     1.7581   0.059562   3.3878   0.009779   0.3312
  1.3200     1.1500   0.042906   3.7309   0.003211   0.7646
  1.3400     0.7932   0.024578   3.0984   0.009022   0.5362
  1.3600     1.3389   0.040584   3.0312   0.011272   0.4126
  1.3800     0.8103   0.025700   3.1718   0.000000   1.3582
  1.4000     0.9578   0.050483   5.2709   0.017224  -0.9952
  1.4200     1.8486   0.067144   3.6321   0.000000   0.2011
  1.4400     2.0289   0.064580   3.1830   0.007894  -1.1568
  1.4600     1.2362   0.050131   4.0554   0.015089  -0.2235
  1.4800     0.9084   0.048529   5.3425   0.000000  -0.0888
  1.5000     1.4011   0.045755   3.2657   0.031910   0.0152
  1.5200     1.7661   0.077169   4.3695   0.018695   0.4215
  1.5400     1.7873   0.090822   5.0814   0.008804   1.3316
  1.5600     1.7299   0.088279   5.1032   0.001172   0.1809
  1.5800     0.6676   0.030439   4.5597   0.053887   1.0137
  1.6000     0.6396   0.034461   5.3879   0.011428  -0.7314
  1.6200     2.1644   0.079372   3.6672   0.033860   0.9078
  1.6400     1.1875   0.036461   3.0703   0.003492   1.3483
  1.6600     0.7728   0.038682   5.0052   0.000000  -0.2558
  1.6800     1.1824   0.047305   4.0007   0.000000   0.3701
  1.7000     1.5056   0.067972   4.5145   0.010646   0.2998
  1.7200     1.9978   0.071268   3.5674   0.034749   0.8745
  1.7400     1.4039   0.042368   3.0178   0.027017   0.5352
  1.7600     1.6686   0.055197   3.3080   0.006686  -0.9574
  1.7800     1.5951   0.079779   5.0015   0.028652   0.7078
  1.8000     1.3199   0.056188   4.2568   0.035161  -0.3636
  1.8200     2.0783   0.079358   3.8183   0.018265  -0.6046
  1.8400     1.9784   0.063178   3.1934   0.006189  -0.0690
  1.8600     2.0216   0.071642   3.5438   0.027535   0.0232
  1.8800     0.9121   0.026962   2.9559   0.020307  -0.4295
  1.9000     1.0471   0.035637   3.4033   0.012994  -0.4046
  1.9200     2.0722   0.101200   4.8837   0.029447  -0.4696
  1.9400     1.5472   0.063634   4.1128   0.000000  -0.4184
  1.9600     1.6143   0.052161   3.2312   0.014031  -1.2915
  1.9800     1.7575   0.059135   3.3647   0.018778  -0.1197
  2.0000     1.9936   0.061394   3.0796   0.000000  -0.1146
  2.0200     1.4545   0.067501   4.6410   0.033743   0.8363
  2.0400     1.1176   0.042879   3.8367   0.029610  -0.6341
  2.0600     2.0670   0.068937   3.3352   0.017136   0.3691
  2.0800     1.7171   0.059266   3.4515   0.019040   1.3733
  2.1000     2.0676   0.100848   4.8776   0.019608  -0.4373
  2.1200     1.2828   0.054725   4.2660   0.009281   0.1436
  2.1400     1.6664   0.055100   3.3065   0.012647  -1.1347
  2.1600     1.2634   0.061408   4.8606   0.019914   1.0893
  2.1800     1.7669   0.088509   5.0094   0.030224  -0.9326
  2.2000     1.9421   0.064190   3.3053   0.030978   1.4310
  2.2200     1.3880   0.066318   4.7780   0.061528   1.2805
  2.2400     1.4474   0.062403   4.3114   0.000000  -1.4738
  2.2600     1.8355   0.072734   3.9626   0.011059   0.0809
  2.2800     0.8855   0.026177   2.9563   0.040573  -0.9230
  2.3000     1.4957   0.068666   4.5908   0.007503   0.3947
  2.3200     0.9796   0.033118   3.3808   0.028112  -0.9207
  2.3400     1.3376   0.039667   2.9656   0.014438  -0.8210
  2.3600     0.8966   0.029830   3.3269   0.000000  -0.9427
  2.3800     1.3352   0.059810   4.4793   0.028455  -0.6393
  2.4000     0.8838   0.029120   3.2950   0.000000   1.2613
  2.4200     1.6711   0.056327   3.3707   0.019634  -0.3414
  2.4400     1.1502   0.037743   3.2815   0.027485   0.5469
  2.4600     0.6366   0.025141   3.9491   0.012930   0.2508
  2.4800     1.4335   0.064257   4.4825   0.021855   0.3205
  2.5000     1.0594   0.049143   4.6386   0.007523  -1.2468
  2.5200     1.9528   0.094177   4.8226   0.056509   0.0903
  2.5400     2.0475   0.088563   4.3254   0.000000  -1.0150
  2.5600     1.9888   0.061485   3.0916   0.018350  -0.8596
  2.5800     1.9211   0.091212   4.7478   0.012793  -0.3295
  2.6000     1.5138   0.057672   3.8096   0.042490  -0.1337
  2.6200     1.2367   0.036269   2.9328   0.014074  -0.6428
  2.6400     0.8291   0.034286   4.1355   0.032272   1.1189
  2.6600     1.9497   0.057639   2.9562   0.030025   0.5708
  2.6800     1.4730   0.058518   3.9727   0.026420  -0.3755
  2.7000     1.2558   0.044304   3.5279   0.031887   0.6302
  2.7200     1.8102   0.068015   3.7573   0.044896  -0.4551
  2.7400     1.8747   0.089838   4.7921   0.009292   0.2908
  2.7600     1.3463   0.048469   3.6002   0.017636   1.4748
  2.7800     1.9436   0.082641   4.2521   0.004375   1.4791
  2.8000     1.7788   0.094586   5.3174   0.020801   0.2305
  2.8200     1.4985   0.065454   4.3681   0.041062  -0.5240
  2.8400     1.0925   0.068876   6.3042   0.047010   1.1546
  2.8600     1.5573   0.067599   4.3408   0.014719   0.3806
  2.8800     1.5409   0.071821   4.6610   0.061646  -0.5685
  2.9000     1.1211   0.038337   3.4196   0.029902  -1.1067
  2.9200     1.4180   0.037883   2.6716   0.057478  -0.5614
  2.9400     1.7639   0.091856   5.2076   0.026913   0.3074
  2.9600     2.1353   0.076471   3.5812   0.040970   0.9478
  2.9800     2.3689   0.099227   4.1887   0.042906   1.0036
  3.0000     8.2811   0.097302   1.1750   0.060138  -1.0138
  3.0200    10.1449   0.095443   0.9408   0.029421  -1.2538
  3.0400    14.0385   0.095022   0.6769   0.055183  -1.4856
  3.0600    14.0032   0.151314   1.0806   0.067678   1.4043
  3.0800    11.9075   0.075747   0.6361   0.058475  -0.9491
  3.1000     8.2661   0.060932   0.7371   0.000000  -0.6459
  3.1200    12.3979   0.118206   0.9534   0.081250  -1.3684
  3.1400    11.8568   0.146941   1.2393   0.000000  -1.2307
  3.1600    15.0348   0.213867   1.4225   0.014786   1.3492
  3.1800    13.7953   0.176057   1.2762   0.037835  -0.3242
  3.2000    13.2070   0.077128   0.5840   0.045892   0.1844
  3.2200    12.4724   0.112706   0.9036   0.056720  -1.3334
  3.2400    13.6644   0.137049   1.0030   0.000000  -1.3170
  3.2600    10.6276   0.088315   0.8310   0.000000  -0.3476
  3.2800    10.5324   0.076469   0.7260   0.000000   0.1786
  3.3000    13.0243   0.092337   0.7090   0.086741   0.2261
  3.3200    10.2554   0.128801   1.2559   0.000000   0.4402
  3.3400     8.6013   0.100545   1.1690   0.032763   1.0335
  3.3600    10.5726   0.155562   1.4714   0.145825  -1.0212
  3.3800    11.1355   0.072884   0.6545   0.035012  -0.5803
  3.4000    11.0810   0.152893   1.3798   0.027460  -1.4587
  3.4200     9.5977   0.141666   1.4760   0.068615  -1.0476
  3.4400    13.8110   0.134852   0.9764   0.043554  -0.5316
  3.4600    14.5977   0.134477   0.9212   0.000000   1.3081
  3.4800     9.0710   0.127965   1.4107   0.031295  -0.0017
  3.5000    14.7911   0.193766   1.3100   0.000000   0.9694
  3.5200     9.6299   0.107408   1.1154   0.064579   0.7255
  3.5400     9.7986   0.121710   1.2421   0.052255   0.0782
  3.5600     8.6279   0.077906   0.9030   0.036366   0.4329
  3.5800     8.3978   0.043632   0.5196   0.000000   0.3866
  3.6000    10.3637   0.138172   1.3332   0.098588  -1.1743
  3.6200    13.9250   0.176152   1.2650   0.000000   0.8912
  3.6400    14.0223   0.140794   1.0041   0.062678   0.4090
  3.6600     8.6811   0.084917   0.9782   0.087894  -0.1864
  3.6800    10.4641   0.074340   0.7104   0.000000   1.3028
  3.7000    11.8045   0.161785   1.3705   0.131464   0.8965
  3.7200     9.3384   0.121353   1.2995   0.054314   1.4212
  3.7400    13.8389   0.159185   1.1503   0.090895   1.0573
  3.7600    12.6474   0.097306   0.7694   0.026616   1.1499
  3.7800     8.3801   0.126079   1.5045   0.055840  -0.1428
  3.8000     9.8484   0.064150   0.6514   0.075638  -1.3175
  3.8200    12.1389   0.085227   0.7021   0.060288  -0.0611
  3.8400     9.1751   0.110376   1.2030   0.110822  -1.0544
  3.8600    12.5514   0.136059   1.0840   0.136391   0.4881
  3.8800     9.3943   0.090630   0.9647   0.093938  -0.7346
  3.9000     9.1071   0.093044   1.0217   0.005298   1.0920
  3.9200     9.4065   0.056107   0.5965   0.008216  -0.9269
  3.9400    12.5412   0.100214   0.7991   0.007858  -0.3094
  3.9600    13.1062   0.153833   1.1737   0.070220   1.2758
  3.9800    14.3153   0.195540   1.3660   0.000000  -1.4458
  4.0000     8.6311   0.089465   1.0365   0.000000  -0.1058
  4.0200    10.8484   0.082357   0.7592   0.025578  -0.3363
  4.0400    14.9786   0.136412   0.9107   0.030581  -0.6963
  4.0600    15.2016   0.100450   0.6608   0.002576  -0.5784
  4.0800    12.4495   0.155603   1.2499   0.045354  -1.1549
  4.1000    14.9982   0.097870   0.6525   0.183262  -0.5469
  4.1200    12.3252   0.073687   0.5979   0.061772  -0.1995
  4.1400    14.1442   0.129420   0.9150   0.000000  -0.5608
  4.1600    10.3936   0.155103   1.4923   0.068810   0.7918
  4.1800     9.4820   0.092555   0.9761   0.000000  -0.0101
  4.2000    11.4984   0.162226   1.4109   0.013500  -0.9319
  4.2200    10.9510   0.108004   0.9862   0.041286   0.1589
  4.2400    10.5901   0.094647   0.8937   0.069117   0.3109
  4.2600    13.2204   0.153415   1.1604   0.131271  -0.9058
  4.2800    11.5724   0.126103   1.0897   0.065161   1.2265
  4.3000    11.3436   0.142274   1.2542   0.052594  -0.1208
  4.3200    13.6486   0.155168   1.1369   0.110171   0.2503
  4.3400    14.9104   0.215487   1.4452   0.033235  -0.7804
  4.3600    14.3638   0.153340   1.0675   0.000000  -1.4415
  4.3800     9.6285   0.103667   1.0767   0.028179  -0.1732
  4.4000     9.9088   0.133875   1.3511   0.012179  -0.6292
  4.4200    14.4193   0.206170   1.4298   0.034623   1.0186
  4.4400    10.7503   0.161963   1.5066   0.121119  -0.4876
  4.4600    13.3926   0.160095   1.1954   0.031859   1.1513
  4.4800    10.1736   0.088686   0.8717   0.064548   1.0480
  4.5000    10.4120   0.102362   0.9831   0.009123   0.4855
  4.5200    10.8390   0.136620   1.2604   0.000000  -0.9955
  4.5400    15.0209   0.159631   1.0627   0.042980  -1.3171
  4.5600    11.0696   0.143686   1.2980   0.081600   0.1231
  4.5800    12.8926   0.174932   1.3568   0.116966  -0.1115
  4.6000    13.6438   0.078589   0.5760   0.079871   1.1457
  4.6200    11.5738   0.102200   0.8830   0.046552   1.0538
  4.6400    13.9241   0.149799   1.0758   0.152870   0.0941
  4.6600    11.9332   0.117231   0.9824   0.061168   0.6792
  4.6800    12.5918   0.164436   1.3059   0.035388  -1.0683
  4.7000    12.6596   0.110553   0.8733   0.081316   0.4584
  4.7200    13.8747   0.111918   0.8066   0.126514  -0.8211
  4.7400    13.7170   0.191470   1.3959   0.051453  -1.2554
  4.7600    10.2530   0.103653   1.0110   0.132297  -0.7299
  4.7800    14.2693   0.195738   1.3717   0.070460   1.3454
  4.8000    15.3780   0.109389   0.7113   0.105487  -0.8173
  4.8200    15.7061   0.134420   0.8558   0.051494   1.2003
  4.8400    10.2808   0.120284   1.1700   0.065115   0.1117
  4.8600    13.5900   0.192293   1.4150   0.000000  -1.4394
  4.8800    12.1431   0.102385   0.8432   0.026219  -0.6549
  4.9000     9.4916   0.074227   0.7820   0.015017   0.1434
  4.9200    13.4907   0.077763   0.5764   0.003621   1.2469
  4.9400    13.6810   0.074588   0.5452   0.020237  -0.5689
  4.9600     9.8671   0.056118   0.5687   0.013393  -1.3373
  4.9800    11.5301   0.099171   0.8601   0.013364   0.8067
  5.0000     9.9724   0.083067   0.8330   0.086147  -0.9836
  5.0200     9.3935   0.052659   0.5606   0.018824  -0.5238
  5.0400     9.5080   0.057375   0.6034   0.045591  -0.5324
  5.0600    14.0811   0.181274   1.2874   0.081887  -0.9576
  5.0800    13.9204   0.098016   0.7041   0.000000   0.1567
  5.1000    10.3961   0.114968   1.1059   0.000000  -0.3185
  5.1200    10.3796   0.069495   0.6695   0.000000  -0.7057
  5.1400    10.3501   0.155371   1.5011   0.136432   1.3991
  5.1600    10.3830   0.057272   0.5516   0.042633   0.8456
  5.1800    14.6044   0.095039   0.6508   0.007877   0.2773
  5.2000     9.1062   0.089505   0.9829   0.114456  -0.0550
  5.2200    13.1105   0.130137   0.9926   0.100909   0.3572
  5.2400    14.2008   0.086240   0.6073   0.061734  -0.8070
  5.2600    14.9729   0.125778   0.8400   0.000000  -0.3417
  5.2800    15.4124   0.214405   1.3911   0.075460   0.2566
  5.3000    12.4488   0.097079   0.7798   0.000000  -1.2890
  5.3200     9.8885   0.094321   0.9538   0.001009   0.0455
  5.3400    12.1466   0.147217   1.2120   0.007421  -1.4313
  5.3600    12.9467   0.076757   0.5929   0.095919   0.9668
  5.3800    12.2975   0.150426   1.2232   0.084915   1.0423
  5.4000    12.3955   0.133219   1.0747   0.099561   1.0190
  5.4200     9.8010   0.107662   1.0985   0.028646  -1.1123
  5.4400    14.9841   0.079329   0.5294   0.053378   0.4364
  5.4600    12.3129   0.135514   1.1006   0.074200  -0.5461
  5.4800    15.6701   0.173166   1.1051   0.099668   0.1666
  5.5000    11.7563   0.061135   0.5200   0.039372  -0.7743
  5.5200    14.5694   0.158266   1.0863   0.099471   1.4422
  5.5400    11.7855   0.083402   0.7077   0.086439   1.2911
  5.5600    12.4131   0.159452   1.2845   0.123682  -0.8002
  5.5800    13.1305   0.107090   0.8156   0.011454   0.4027
  5.6000    14.3365   0.132842   0.9266   0.016890   0.0478
  5.6200    13.3363   0.112304   0.8421   0.003714   0.7843
  5.6400    13.8739   0.171942   1.2393   0.070823  -0.3864
  5.6600    13.0325   0.131934   1.0123   0.000000   0.6941
  5.6800     9.9202   0.066020   0.6655   0.073502   0.3736
  5.7000     9.5362   0.096226   1.0091   0.032195   0.6536
  5.7200    15.9274   0.215408   1.3524   0.084229   0.8247
  5.7400    14.3274   0.139324   0.9724   0.096217   0.9766
  5.7600    12.8846   0.083401   0.6473   0.087579  -0.5298
  5.7800    15.9910   0.218745   1.3679   0.004200   0.4422
  5.8000    14.4486   0.168272   1.1646   0.051989   0.2091
  5.8200     9.5620   0.112872   1.1804   0.054623  -0.2524
  5.8400    13.1028   0.081882   0.6249   0.057557   0.5273
  5.8600    13.1617   0.177346   1.3474   0.029436   1.3370
  5.8800     9.5017   0.098885   1.0407   0.077216  -1.3820
  5.9000    14.2979   0.196172   1.3720   0.000000  -0.1892
  5.9200    13.6380   0.146343   1.0731   0.017190   0.7183
  5.9400    14.2014   0.173710   1.2232   0.114414  -0.8195
  5.9600    12.8695   0.148464   1.1536   0.000000  -0.8343
  5.9800    10.6902   0.069114   0.6465   0.008694  -0.4104
  6.0000    11.8317   0.085118   0.7194   0.080343   0.2663
  6.0200    11.9600   0.068308   0.5711   0.000033  -0.8404
  6.0400    14.3029   0.216167   1.5114   0.000000   0.5475
  6.0600    11.3129   0.060821   0.5376   0.051638   1.4056
  6.0800    12.4576   0.104724   0.8407   0.118830  -0.5022
  6.1000    12.6769   0.076270   0.6016   0.011971   0.1842
  6.1200    11.6543   0.082142   0.7048   0.113411   0.3276
  6.1400    10.3037   0.098710   0.9580   0.007010   1.2469
  6.1600    15.0058   0.160763   1.0713   0.199980  -1.2477
  6.1800    15.2179   0.213587   1.4035   0.000000  -1.1282
  6.2000    15.8254   0.095913   0.6061   0.078193  -1.3307
  6.2200    15.0019   0.209614   1.3973   0.050165   0.5073
  6.2400    14.7192   0.198195   1.3465   0.039563  -1.2883
  6.2600    10.8993   0.076435   0.7013   0.113014  -1.3940
  6.2800    11.0565   0.080111   0.7246   0.050777  -0.9984
  6.3000     9.6769   0.052409   0.5416   0.058075   0.8603
  6.3200    10.1937   0.079002   0.7750   0.113336   0.1376
  6.3400    15.9584   0.182919   1.1462   0.047073  -1.3671
  6.3600    13.9385   0.102400   0.7347   0.078407   0.7056
  6.3800    14.7323   0.116466   0.7905   0.121770  -0.3982
  6.4000    11.5672   0.071435   0.6176   0.101610  -0.9076
  6.4200    15.9810   0.100472   0.6287   0.104950  -1.1842
  6.4400     9.9285   0.127444   1.2836   0.093089   0.3503
  6.4600    11.3077   0.127610   1.1285   0.114318  -0.6442
  6.4800    12.6090   0.171835   1.3628   0.149620   0.2751
  6.5000    14.9451   0.190006   1.2714   0.078090  -0.1394
  6.5200    13.4098   0.171221   1.2768   0.040948  -0.5729
  6.5400    14.7225   0.112697   0.7655   0.137324   0.6381
  6.5600    11.2165   0.112496   1.0029   0.054880  -1.2631
  6.5800    14.3057   0.085268   0.5960   0.000000  -1.2531
  6.6000    14.9271   0.094739   0.6347   0.051138   0.3353
  6.6200    10.8099   0.064421   0.5959   0.162693  -0.3335
  6.6400    14.1006   0.168848   1.1975   0.150767  -1.0112
  6.6600    10.1717   0.145797   1.4334   0.058062   0.3024
  6.6800    15.7706   0.182981   1.1603   0.110813  -0.1017
  6.7000    10.9675   0.123683   1.1277   0.096586   1.2317
  6.7200    15.8524   0.083902   0.5293   0.000000  -0.5195
  6.7400    15.0884   0.165523   1.0970   0.040974   0.0875
  6.7600    11.8625   0.076886   0.6481   0.009947   0.6478
  6.7800    15.4911   0.181673   1.1728   0.002832  -1.2441
  6.8000    13.8534   0.100305   0.7240   0.123570   0.8262
  6.8200    10.7266   0.126836   1.1824   0.071145  -0.2569
  6.8400    10.8873   0.066066   0.6068   0.050680   0.6010
  6.8600     9.9419   0.110109   1.1075   0.007505  -0.6930
  6.8800    14.3230   0.143185   0.9997   0.037928   1.4388
  6.9000    13.7643   0.134280   0.9756   0.009826  -1.3033
  6.9200    10.7162   0.060024   0.5601   0.061854   1.4942
  6.9400    10.6212   0.090194   0.8492   0.000000   1.4103
  6.9600    16.4273   0.130262   0.7930   0.048688   0.1268
  6.9800    10.1923   0.077688   0.7622   0.000000  -1.3984
  7.0000    15.6447   0.175378   1.1210   0.108137   0.1051
  7.0200    14.7033   0.216368   1.4716   0.086372  -0.3214
  7.0400    11.6278   0.104119   0.8954   0.000000   1.1174
  7.0600    14.8815   0.162971   1.0951   0.095074  -0.4479
  7.0800    10.8226   0.133053   1.2294   0.148960   0.2265
  7.1000    15.9684   0.101393   0.6350   0.024946   0.4308
  7.1200    12.0970   0.180814   1.4947   0.090020  -1.3156
  7.1400    10.7053   0.057573   0.5378   0.054382   0.8651
  7.1600    12.2524   0.091933   0.7503   0.106565   0.2950
  7.1800    11.3530   0.154012   1.3566   0.010429   0.2036
  7.2000    15.0817   0.161683   1.0720   0.084620  -1.0676
  7.2200    13.2237   0.162586   1.2295   0.000000   0.0444
  7.2400    14.8273   0.097465   0.6573   0.040271   1.2093
  7.2600    11.5333   0.134225   1.1638   0.061632   0.8510
  7.2800    16.2234   0.216469   1.3343   0.042864  -0.2641
  7.3000    15.1470   0.161043   1.0632   0.102545   0.0212
  7.3200    12.8070   0.191154   1.4926   0.114742  -0.8962
  7.3400    15.1487   0.199033   1.3139   0.092711   0.1070
  7.3600    13.1803   0.168514   1.2785   0.143739  -1.3735
  7.3800    10.8788   0.122780   1.1286   0.087181  -0.9214
  7.4000    14.7700   0.179883   1.2179   0.120703  -0.2293
  7.4200    10.5072   0.136925   1.3032   0.000000  -0.4372
  7.4400    11.4098   0.150724   1.3210   0.058466  -1.4288
  7.4600    15.7461   0.180852   1.1485   0.000000   1.2884
  7.4800    12.6780   0.121139   0.9555   0.099774  -1.0767
  7.5000    13.2742   0.182728   1.3766   0.092467   0.1398
  7.5200    17.3191   0.243734   1.4073   0.085698   1.3774
  7.5400    12.6372   0.114836   0.9087   0.011194  -0.9008
  7.5600    15.7803   0.137593   0.8719   0.113671  -0.3827
  7.5800    11.0291   0.132471   1.2011   0.078474   0.2505
  7.6000    13.6994   0.167989   1.2263   0.063669  -0.7838
  7.6200    11.5597   0.084224   0.7286   0.104360   0.5622
  7.6400    16.3698   0.136320   0.8328   0.119240   0.7194
  7.6600    11.2795   0.123985   1.0992   0.080281  -0.1990
  7.6800    16.4677   0.148574   0.9022   0.102732   0.8062
  7.7000    14.8311   0.167330   1.1282   0.000000  -0.8277
  7.7200    10.6154   0.152574   1.4373   0.000000  -1.4443
  7.7400    11.9278   0.127794   1.0714   0.071466  -0.0405
  7.7600    12.7314   0.122819   0.9647   0.078190   0.4273
  7.7800    11.7201   0.096772   0.8257   0.000000   0.7781
  7.8000    15.9419   0.204545   1.2831   0.056909  -0.4879
  7.8200    17.2205   0.150620   0.8747   0.108581  -1.3792
  7.8400    14.6430   0.102571   0.7005   0.069855  -0.4486
  7.8600    15.6729   0.116958   0.7462   0.097603   1.3331
  7.8800    12.6837   0.110896   0.8743   0.085600   0.3541
  7.9000    13.2064   0.163290   1.2364   0.083558  -1.3623
  7.9200    17.3780   0.136036   0.7828   0.118792  -0.8818
  7.9400    16.0945   0.197597   1.2277   0.125736  -1.2368
  7.9600    14.0946   0.105760   0.7504   0.089314   0.4996
  7.9800    16.7847   0.119294   0.7107   0.097403   0.7824
  8.0000     4.3185   0.248476   5.7537   0.058192   0.4961
  8.0200     5.6491   0.309025   5.4703   0.104624  -0.8938
  8.0400     3.3980   0.172153   5.0663   0.020445   0.9546
  8.0600     6.0163   0.289610   4.8137   0.069183  -1.0312
  8.0800     3.9333   0.207520   5.2760   0.042502  -0.4274
  8.1000     3.1298   0.141311   4.5149   0.088774   0.0634
  8.1200     5.9470   0.282746   4.7544   0.067489   0.7815
  8.1400     5.5567   0.309500   5.5699   0.067164   0.4534
  8.1600     3.2932   0.178539   5.4215   0.023955  -0.9180
  8.1800     5.2447   0.250598   4.7781   0.106151   0.6309
  8.2000     3.3705   0.172420   5.1155   0.088258  -0.5673
  8.2200     5.7810   0.325428   5.6292   0.066822  -0.3648
  8.2400     5.6289   0.225535   4.0067   0.015761   1.4085
  8.2600     3.4991   0.190623   5.4477   0.050884   0.0450
  8.2800     3.6652   0.161348   4.4022   0.068294   0.2026
  8.3000     3.4055   0.147946   4.3444   0.081584   0.8452
  8.3200     4.5656   0.262456   5.7486   0.077680   0.9907
  8.3400     4.4744   0.192374   4.2994   0.083089   0.9345
  8.3600     5.7878   0.309047   5.3396   0.074883   0.6829
  8.3800     5.8011   0.258731   4.4600   0.074146  -0.1024
  8.4000     3.8275   0.183637   4.7979   0.091994  -1.1077
  8.4200     4.0743   0.169288   4.1550   0.032333  -0.4923
  8.4400     4.1759   0.260499   6.2381   0.112226   0.3004
  8.4600     3.2870   0.166513   5.0659   0.125807  -1.1342
  8.4800     3.4579   0.195836   5.6634   0.096664   1.1694
  8.5000     5.3691   0.293978   5.4753   0.122475   0.8704
  8.5200     3.2551   0.146284   4.4940   0.136209  -1.3234
  8.5400     4.7535   0.270449   5.6894   0.037628   1.4426
  8.5600     3.6399   0.213244   5.8585   0.054526   0.2315
  8.5800     5.4097   0.261996   4.8431   0.042473  -0.7968
  8.6000     5.1267   0.253400   4.9428   0.161580  -0.8055
  8.6200     4.3731   0.235972   5.3960   0.119947  -1.4189
  8.6400     5.4035   0.259453   4.8016   0.024862  -1.1145
  8.6600     4.9939   0.274999   5.5067   0.055648  -0.7351
  8.6800     3.6763   0.180596   4.9124   0.073838   0.4435
  8.7000     5.1557   0.204119   3.9591   0.073825  -1.3458
  8.7200     4.4886   0.257340   5.7332   0.019593  -1.4226
  8.7400     3.6026   0.178412   4.9523   0.100854   1.4816
  8.7600     3.2588   0.186529   5.7239   0.074129   0.8380
  8.7800     4.5465   0.273699   6.0200   0.107009   0.8103
  8.8000     3.2461   0.175773   5.4149   0.070751   0.2542
  8.8200     4.1257   0.200984   4.8715   0.051489   1.4424
  8.8400     4.1506   0.245019   5.9033   0.120458   0.9966
  8.8600     4.8751   0.247167   5.0700   0.042370   0.6633
  8.8800     5.8475   0.272596   4.6618   0.106158   0.0729
  8.9000     5.3122   0.299507   5.6381   0.051790   0.1326
  8.9200     3.3701   0.158976   4.7172   0.078754   0.7953
  8.9400     4.8212   0.237341   4.9229   0.064997   0.5280
  8.9600     5.9977   0.270351   4.5076   0.082181   1.2966
  8.9800     5.9986   0.308379   5.1409   0.071197  -0.5805
  9.0000     4.6173   0.266157   5.7644   0.054592   0.0374
  9.0200     4.1191   0.204300   4.9598   0.097802  -0.2265
  9.0400     3.6365   0.163888   4.5068   0.064406   0.0775
  9.0600     4.8337   0.278784   5.7675   0.122645   0.2240
  9.0800     4.2186   0.166981   3.9582   0.096597  -0.1122
  9.1000     3.4001   0.163127   4.7978   0.080978   1.4746
  9.1200     5.5729   0.340038   6.1017   0.052937   0.8163
  9.1400     4.5527   0.260486   5.7216   0.101564  -0.4390
  9.1600     3.5035   0.146905   4.1931   0.058740   0.6371
  9.1800     3.3808   0.180744   5.3462   0.044493  -1.4068
  9.2000     4.3420   0.252283   5.8103   0.080551   1.3781
  9.2200     5.5452   0.260577   4.6991   0.116864   1.4330
  9.2400     3.6046   0.190204   5.2767   0.097161   0.6530
  9.2600     5.1981   0.266317   5.1233   0.084323   0.2688
  9.2800     5.3389   0.245066   4.5902   0.106730   1.0438
  9.3000     5.4855   0.231647   4.2229   0.091010  -1.1498
  9.3200     5.1361   0.217536   4.2354   0.121609   1.0852
  9.3400     3.5049   0.179225   5.1136   0.103286  -0.3199
  9.3600     5.7728   0.249527   4.3225   0.095180  -0.5585
  9.3800     4.4454   0.242136   5.4469   0.039554  -0.4327
  9.4000     3.7883   0.208184   5.4954   0.157538  -0.4394
  9.4200     5.0375   0.215437   4.2766   0.094955  -0.9150
  9.4400     4.6815   0.212750   4.5445   0.064800  -1.4602
  9.4600     3.9312   0.184239   4.6866   0.099822   0.6101
  9.4800     3.5712   0.207022   5.7970   0.099870   0.6878
  9.5000     3.7032   0.188213   5.0824   0.088131  -0.3650
  9.5200     3.4449   0.147212   4.2734   0.058669  -0.8524
  9.5400     5.0148   0.236631   4.7187   0.109231   1.0079
  9.5600     4.9463   0.288552   5.8337   0.088224   0.7683
  9.5800     5.0314   0.241485   4.7996   0.163853  -1.2196
  9.6000     3.7245   0.158384   4.2524   0.087416   0.2455
  9.6200     3.8475   0.165071   4.2903   0.092800   0.1194
  9.6400     5.3052   0.238834   4.5019   0.037399  -0.5268
  9.6600     5.1850   0.269346   5.1948   0.088894   1.0946
  9.6800     4.7120   0.263352   5.5889   0.127651  -0.5052
  9.7000     3.8243   0.170511   4.4587   0.089244   0.3704
  9.7200     4.7710   0.261109   5.4729   0.076176   0.4993
  9.7400     4.9151   0.259216   5.2739   0.066476  -1.4431
  9.7600     5.2126   0.306396   5.8779   0.133678   1.0216
  9.7800     5.8091   0.355905   6.1266   0.090826   0.3722
  9.8000     5.7161   0.237194   4.1496   0.115959  -0.6052
  9.8200     5.5018   0.280096   5.0910   0.200390   0.8285
  9.8400     5.8054   0.244535   4.2122   0.109803  -0.5325
  9.8600     4.0630   0.225453   5.5490   0.071569  -1.2153
  9.8800     4.8363   0.225981   4.6726   0.057073  -0.0649
  9.9000     5.8217   0.262294   4.5055   0.116027   0.7752
  9.9200     4.5327   0.195229   4.3071   0.115969  -0.2996
  9.9400     3.4776   0.149124   4.2882   0.122478  -0.6782
  9.9600     3.8670   0.228842   5.9178   0.096752  -0.5730
  9.9800     3.7593   0.159487   4.2425   0.101555   1.4039
 10.0000     5.7398   0.308349   5.3721   0.077297   0.2982
 10.0200     6.1786   0.260901   4.2226   0.130338   0.6514
 10.0400     4.1922   0.202463   4.8295   0.135763  -0.2036
 10.0600     4.1251   0.249091   6.0384   0.092300   0.1252
 10.0800     4.3339   0.218716   5.0466   0.129959   0.0632
 10.1000     5.3678   0.300424   5.5967   0.104036  -0.6284
 10.1200     5.7809   0.336592   5.8225   0.080480  -1.3113
 10.1400     4.9023   0.233604   4.7652   0.113876   1.4602
 10.1600     5.1071   0.310585   6.0814   0.105978   0.1373
 10.1800     4.8716   0.273499   5.6142   0.108445   1.2010
 10.2000     3.8997   0.162147   4.1579   0.068707   0.6822
 10.2200     6.2719   0.321584   5.1274   0.121980  -1.0352
 10.2400     4.8891   0.261901   5.3569   0.101046  -0.8760
 10.2600     4.7534   0.259729   5.4641   0.065766  -0.0941
 10.2800     4.2845   0.176024   4.1084   0.096917  -0.4198
 10.3000     6.0483   0.299218   4.9471   0.073267   1.3220
 10.3200     5.3798   0.257155   4.7800   0.144656   0.7380
 10.3400     4.8138   0.236240   4.9075   0.123093   0.3720
 10.3600     4.8196   0.202252   4.1964   0.110860  -0.8438
 10.3800     5.1977   0.242947   4.6741   0.113326   0.6162
 10.4000     4.9334   0.249232   5.0519   0.151295  -0.2159
 10.4200     5.0821   0.275091   5.4130   0.088815  -0.7540
 10.4400     6.3320   0.305624   4.8266   0.062697   0.4779
 10.4600     5.6850   0.230955   4.0626   0.128520   0.9153
 10.4800     5.0834   0.226288   4.4515   0.124955  -1.2859
 10.5000     4.2292   0.186322   4.4056   0.078923  -0.9254
 10.5200     4.2877   0.244526   5.7030   0.093722   0.7012
 10.5400     3.8481   0.229365   5.9605   0.105830  -1.0606
 10.5600     4.8244   0.254937   5.2843   0.119400   1.0136
 10.5800     3.6074   0.205915   5.7081   0.139648   0.6005
 10.6000     5.9292   0.273601   4.6144   0.133503   1.3784
 10.6200     4.1074   0.249257   6.0685   0.136937   0.2927
 10.6400     6.1474   0.347842   5.6584   0.088089   1.2909
 10.6600     4.1804   0.184389   4.4108   0.121632   1.1836
 10.6800     3.9453   0.177208   4.4917   0.118276  -0.7195
 10.7000     5.0507   0.283266   5.6084   0.121832  -0.4728
 10.7200     3.8001   0.180362   4.7462   0.131422  -1.3275
 10.7400     6.3816   0.308770   4.8385   0.106420  -1.4459
 10.7600     5.4056   0.305773   5.6566   0.122897  -1.0279
 10.7800     3.7932   0.177866   4.6891   0.084220  -0.1199
 10.8000     5.9191   0.345291   5.8335   0.064477   1.2525
 10.8200     4.4292   0.220952   4.9885   0.092374  -0.2420
 10.8400     4.8285   0.202270   4.1891   0.076021  -0.6207
 10.8600     4.5484   0.194540   4.2771   0.118071  -0.8102
 10.8800     4.0199   0.244096   6.0722   0.111482   1.0952
 10.9000     5.6396   0.303033   5.3733   0.133416   0.5198
 10.9200     5.8791   0.244452   4.1579   0.105754  -0.6675
 10.9400     4.3327   0.189784   4.3802   0.066870  -1.4699
 10.9600     6.4062   0.293360   4.5793   0.102785   1.3818
 10.9800     4.1394   0.223490   5.3991   0.036586   1.0997
 11.0000     4.0715   0.233864   5.7439   0.178269  -0.8181
 11.0200     4.9567   0.288339   5.8171   0.077353  -0.3805
 11.0400     3.8428   0.218735   5.6920   0.100959  -0.3796
 11.0600     6.3089   0.270504   4.2877   0.129646  -1.1348
 11.0800     4.2838   0.235920   5.5073   0.028104  -1.3231
 11.1000     4.3567   0.233677   5.3636   0.153772   1.4101
 11.1200     5.1050   0.305554   5.9853   0.126901   0.2581
 11.1400     5.2645   0.233544   4.4362   0.109605   0.8907
 11.1600     5.6181   0.266560   4.7447   0.100878  -0.1461
 11.1800     5.9756   0.246106   4.1185   0.126284   1.0975
 11.2000     4.2810   0.197038   4.6026   0.127391  -0.5670
 11.2200     6.1560   0.330729   5.3725   0.154326  -1.3891
 11.2400     5.8676   0.312214   5.3210   0.155776  -0.1729
 11.2600     6.0702   0.251765   4.1475   0.126313   0.8776
 11.2800     4.6550   0.266595   5.7271   0.104670   0.7683
 11.3000     4.7367   0.229158   4.8379   0.086604  -0.0504
 11.3200     6.3369   0.301491   4.7577   0.071750  -0.8990
 11.3400     6.0593   0.290783   4.7990   0.126466   0.0877
 11.3600     5.5678   0.294960   5.2976   0.134774   0.7785
 11.3800     5.7169   0.234323   4.0988   0.098175  -0.8993
 11.4000     6.2235   0.355124   5.7062   0.134820  -0.1488
 11.4200     4.2229   0.240092   5.6855   0.125027  -1.0759
 11.4400     5.6172   0.272763   4.8558   0.112531   0.6843
 11.4600     4.7628   0.271615   5.7029   0.123949  -0.7300
 11.4800     5.0104   0.282998   5.6482   0.071199  -0.1926
 11.5000     6.0519   0.326623   5.3970   0.107942   0.7908
 11.5200     4.4682   0.229043   5.1261   0.163234   0.0686
 11.5400     5.7974   0.346934   5.9843   0.185861  -1.2240
 11.5600     4.7729   0.232372   4.8685   0.153489  -0.2830
 11.5800     5.8168   0.264304   4.5438   0.080968  -1.0704
 11.6000     4.9306   0.274052   5.5582   0.122823   0.2338
 11.6200     4.9621   0.292557   5.8959   0.131278  -0.1136
 11.6400     6.0710   0.248356   4.0908   0.118777   0.4654
 11.6600     5.7820   0.241128   4.1704   0.115783   1.1675
 11.6800     5.7764   0.265331   4.5934   0.101302  -0.9868
 11.7000     6.1466   0.314282   5.1131   0.135369  -0.1240
 11.7200     6.5218   0.269637   4.1344   0.136025   0.4071
 11.7400     5.6014   0.319687   5.7073   0.169373   0.6201
 11.7600     4.6860   0.271739   5.7990   0.155356  -1.2830
 11.7800     4.7307   0.202651   4.2838   0.107476   0.9436
 11.8000     6.0012   0.250962   4.1818   0.104219  -0.5313
 11.8200     4.0745   0.230196   5.6497   0.119295   1.2661
 11.8400     5.7371   0.251369   4.3815   0.105026   0.0286
 11.8600     6.0305   0.256710   4.2569   0.131607  -0.0830
 11.8800     4.6484   0.261767   5.6313   0.098336  -0.0166
 11.9000     6.2977   0.341989   5.4304   0.124254  -0.7960
 11.9200     5.9541   0.272776   4.5813   0.130354   0.3054
 11.9400     3.9179   0.171279   4.3717   0.113056   0.6479
 11.9600     4.9479   0.273219   5.5219   0.097175   0.9863
 11.9800     5.5257   0.317399   5.7441   0.146542  -1.4960
 12.0000    22.6259   0.285266   1.2608   0.170420  -0.9851
 12.0200    21.3689   0.335733   1.5711   0.134811   1.1378
 12.0400    22.8739   0.364743   1.5946   0.122772  -0.8345
 12.0600    28.0687   0.238386   0.8493   0.164368  -0.8349
 12.0800    16.4026   0.169224   1.0317   0.182664   0.8400
 12.1000    23.0807   0.199837   0.8658   0.191655   0.9704
 12.1200    19.9751   0.211555   1.0591   0.187160   1.4086
 12.1400    21.6489   0.249386   1.1520   0.127706  -0.6449
 12.1600    21.8987   0.317843   1.4514   0.126754   1.0499
 12.1800    15.6749   0.189104   1.2064   0.054107  -1.4455
 12.2000    20.9811   0.360961   1.7204   0.118759  -0.6791
 12.2200    20.6201   0.286091   1.3874   0.051255  -1.4395
 12.2400    25.8733   0.365887   1.4141   0.143859  -0.1772
 12.2600    25.5549   0.272922   1.0680   0.236574   0.8215
 12.2800    25.2984   0.427536   1.6900   0.070979  -0.6312
 12.3000    23.9335   0.254545   1.0635   0.241575   0.1282
 12.3200    20.8533   0.202082   0.9691   0.175425  -0.5380
 12.3400    27.2444   0.225846   0.8290   0.132951  -1.0802
 12.3600    24.2023   0.372886   1.5407   0.182121   1.3671
 12.3800    19.9537   0.205090   1.0278   0.223611   0.4006
 12.4000    28.0056   0.405214   1.4469   0.109196   1.0967
 12.4200    29.8300   0.343808   1.1526   0.044964  -0.6765
 12.4400    22.5347   0.383223   1.7006   0.169014   0.2708
 12.4600    30.4472   0.396750   1.3031   0.062713   0.2403
 12.4800    17.6062   0.160091   0.9093   0.000000  -0.2777
 12.5000    18.9420   0.222014   1.1721   0.110651  -0.0413
 12.5200    26.6652   0.257002   0.9638   0.180387   0.6852
 12.5400    23.6033   0.204816   0.8677   0.197261  -1.0974
 12.5600    27.4180   0.459593   1.6762   0.227243   1.3318
 12.5800    20.7613   0.213013   1.0260   0.155769  -0.9228
 12.6000    21.7244   0.225197   1.0366   0.315378  -1.4766
 12.6200    23.3934   0.394264   1.6854   0.092688   1.3064
 12.6400    26.1764   0.250540   0.9571   0.174141   0.9620
 12.6600    26.1827   0.288880   1.1033   0.039785   0.0361
 12.6800    27.2101   0.469861   1.7268   0.146762   0.0190
 12.7000    16.0628   0.149328   0.9297   0.117331   0.9828
 12.7200    19.6126   0.318062   1.6217   0.111649  -1.4282
 12.7400    22.8541   0.243314   1.0646   0.155055  -0.1496
 12.7600    22.6654   0.308756   1.3622   0.114759   1.0564
 12.7800    15.5576   0.201835   1.2973   0.069058   0.2813
 12.8000    25.5958   0.322281   1.2591   0.194800  -0.5734
 12.8200    25.1338   0.399882   1.5910   0.114185  -0.8810
 12.8400    24.5674   0.337141   1.3723   0.163893  -0.4346
 12.8600    24.8520   0.216579   0.8715   0.198055   0.2969
 12.8800    28.1905   0.406064   1.4404   0.171632  -0.7808
 12.9000    16.2928   0.143104   0.8783   0.181059  -0.0535
 12.9200    28.7089   0.489639   1.7055   0.147720   0.7706
 12.9400    21.3119   0.209968   0.9852   0.168518  -1.3606
 12.9600    24.5436   0.337391   1.3747   0.104960  -0.9612
 12.9800    21.4363   0.255513   1.1920   0.037214  -1.2836
 13.0000    19.8144   0.279979   1.4130   0.211815   1.2871
 13.0200    19.3561   0.288242   1.4892   0.193039  -0.5062
 13.0400    21.9026   0.310241   1.4165   0.074552  -1.0197
 13.0600    21.5661   0.275268   1.2764   0.143672  -0.5500
 13.0800    19.5946   0.197799   1.0095   0.104672   0.8223
 13.1000    22.0456   0.386907   1.7550   0.066954  -0.4995
 13.1200    25.8277   0.373222   1.4450   0.137825   0.4199
 13.1400    19.6522   0.232135   1.1812   0.066001  -0.0472
 13.1600    21.8045   0.315974   1.4491   0.090440   0.2831
 13.1800    25.3941   0.217550   0.8567   0.157980  -0.1030
 13.2000    22.2891   0.278876   1.2512   0.101075  -0.9107
 13.2200    27.8138   0.257900   0.9272   0.113222  -1.4893
 13.2400    22.6629   0.216797   0.9566   0.039540   1.1164
 13.2600    24.4278   0.270026   1.1054   0.029320  -0.1491
 13.2800    26.0324   0.381036   1.4637   0.104714   1.3972
 13.3000    21.6171   0.206566   0.9556   0.154504  -0.8358
 13.3200    21.6897   0.192514   0.8876   0.062938   0.8902
 13.3400    25.6346   0.244885   0.9553   0.206940  -1.1574
 13.3600    23.7058   0.241327   1.0180   0.138738   1.0506
 13.3800    22.7620   0.342745   1.5058   0.175091   0.5959
 13.4000    27.8972   0.448126   1.6063   0.159043  -1.3496
 13.4200    21.1676   0.224075   1.0586   0.190377  -0.0720
 13.4400    20.7917   0.194847   0.9371   0.097145   1.1754
 13.4600    24.1634   0.283649   1.1739   0.071863   0.0103
 13.4800    17.7215   0.302309   1.7059   0.220810  -0.3167
 13.5000    17.2119   0.236835   1.3760   0.170861   0.6889
 13.5200    24.8483   0.363836   1.4642   0.080150   0.9551
 13.5400    21.4567   0.230401   1.0738   0.256658  -0.1967
 13.5600    16.8698   0.150033   0.8894   0.164893  -1.4550
 13.5800    29.4666   0.292514   0.9927   0.223639   0.2501
 13.6000    17.0573   0.274039   1.6066   0.248694   0.6245
 13.6200    16.5121   0.292442   1.7711   0.173573   0.2810
 13.6400    23.0661   0.340727   1.4772   0.120832   1.4847
 13.6600    21.2957   0.183162   0.8601   0.094760  -0.7956
 13.6800    25.4461   0.303488   1.1927   0.261011   1.2820
 13.7000    16.4382   0.194941   1.1859   0.070381   0.2276
 13.7200    17.7361   0.308190   1.7376   0.168292   0.8428
 13.7400    20.4971   0.247827   1.2091   0.091841  -0.7241
 13.7600    27.3863   0.296268   1.0818   0.084099   1.4253
 13.7800    30.4635   0.409819   1.3453   0.078404  -0.5427
 13.8000    25.8758   0.406329   1.5703   0.285747   0.3300
 13.8200    31.5371   0.387929   1.2301   0.158263   0.5552
 13.8400    22.7909   0.224616   0.9856   0.144741   0.3630
 13.8600    20.7794   0.199828   0.9617   0.213926   0.8347
 13.8800    17.2043   0.304207   1.7682   0.128158  -1.1307
 13.9000    31.2963   0.509788   1.6289   0.166483  -1.2054
 13.9200    19.6953   0.187016   0.9495   0.130581  -0.6961
 13.9400    18.6487   0.252429   1.3536   0.091343   0.4662
 13.9600    25.0728   0.306400   1.2220   0.092556   0.9756
 13.9800    17.9767   0.163119   0.9074   0.000000   0.1914
 14.0000    26.8643   0.266504   0.9920   0.118596  -0.7533
 14.0200    19.0783   0.277241   1.4532   0.092126  -0.7467
 14.0400    19.5589   0.199108   1.0180   0.166501  -0.2600
 14.0600    20.3104   0.264916   1.3043   0.086012   0.9121
 14.0800    20.2957   0.243818   1.2013   0.219889  -1.0995
 14.1000    17.2753   0.227030   1.3142   0.193062  -0.6974
 14.1200    22.9869   0.260798   1.1345   0.185688   0.4595
 14.1400    26.7850   0.353776   1.3208   0.108534   0.0687
 14.1600    23.5235   0.249457   1.0605   0.202711  -1.0694
 14.1800    20.0231   0.324983   1.6230   0.169707   0.1666
 14.2000    25.3848   0.249541   0.9830   0.116943  -0.1695
 14.2200    29.7183   0.481526   1.6203   0.172019   0.6760
 14.2400    30.0832   0.399067   1.3265   0.178752   0.9101
 14.2600    22.8530   0.385958   1.6889   0.138873   1.0977
 14.2800    27.4464   0.307451   1.1202   0.117315  -0.1685
 14.3000    24.9069   0.418537   1.6804   0.249796  -1.0388
 14.3200    30.3341   0.448185   1.4775   0.042197   0.9576
 14.3400    25.0218   0.245428   0.9809   0.170493   0.3292
 14.3600    20.8326   0.262004   1.2577   0.208933  -0.8441
 14.3800    20.3719   0.272586   1.3380   0.127132  -1.3389
 14.4000    26.8062   0.225079   0.8397   0.186010   0.4025
 14.4200    26.4980   0.426123   1.6081   0.094182   0.2938
 14.4400    21.0834   0.218265   1.0352   0.115981   0.7301
 14.4600    18.3044   0.317501   1.7346   0.078596   0.8330
 14.4800    22.1137   0.186112   0.8416   0.202090   1.2141
 14.5000    26.4719   0.270301   1.0211   0.158406  -0.2128
 14.5200    27.3195   0.337681   1.2360   0.136443   0.4278
 14.5400    20.1120   0.206336   1.0259   0.133305  -0.3724
 14.5600    21.5272   0.292695   1.3597   0.102014   0.4791
 14.5800    20.7317   0.177704   0.8572   0.063221   0.0540
 14.6000    21.1117   0.358880   1.6999   0.176320   0.1817
 14.6200    25.7509   0.432600   1.6799   0.122358   1.1695
 14.6400    26.6398   0.248378   0.9324   0.167328  -0.2599
 14.6600    29.4337   0.350751   1.1917   0.156306   1.3726
 14.6800    25.9137   0.283875   1.0955   0.072710   0.9604
 14.7000    27.7690   0.319268   1.1497   0.133703   0.2217
 14.7200    20.4300   0.208860   1.0223   0.156836  -0.4925
 14.7400    31.8067   0.563002   1.7701   0.104806   0.9260
 14.7600    20.1375   0.184348   0.9154   0.193542   1.3476
 14.7800    21.1833   0.183127   0.8645   0.062855  -0.9179
 14.8000    17.5297   0.189477   1.0809   0.101871   0.4532
 14.8200    27.4450   0.436374   1.5900   0.121007  -0.5476
 14.8400    22.1121   0.352480   1.5941   0.212032   1.4285
 14.8600    31.6759   0.451058   1.4240   0.085092   1.0885
 14.8800    27.5440   0.299843   1.0886   0.270886  -0.4869
 14.9000    27.5210   0.342078   1.2430   0.291929  -0.1357
 14.9200    23.8139   0.261253   1.0971   0.096114  -0.5750
 14.9400    24.6908   0.198684   0.8047   0.108984  -0.7547
 14.9600    25.0642   0.279112   1.1136   0.232206   1.0681
 14.9800    19.0418   0.176498   0.9269   0.211355   0.6132
 15.0000    25.8958   0.423310   1.6347   0.145779  -0.7526
 15.0200    28.6709   0.239656   0.8359   0.235335   1.2296
 15.0400    31.4740   0.471675   1.4986   0.265145  -1.4754
 15.0600    24.7599   0.372465   1.5043   0.114367   0.5617
 15.0800    19.2553   0.286286   1.4868   0.049067   1.4519
 15.1000    26.5733   0.422391   1.5895   0.068871   0.8633
 15.1200    19.5255   0.184431   0.9446   0.135427   0.1605
 15.1400    20.0421   0.211978   1.0577   0.257211   0.4320
 15.1600    23.0053   0.394309   1.7140   0.160720  -1.1450
 15.1800    20.9184   0.325841   1.5577   0.202681   0.0362
 15.2000    19.9724   0.195606   0.9794   0.216240   0.4903
 15.2200    21.0798   0.261191   1.2391   0.207581   0.0884
 15.2400    22.9700   0.222603   0.9691   0.056507  -1.2955
 15.2600    22.2227   0.346679   1.5600   0.045625  -0.5998
 15.2800    19.0702   0.290327   1.5224   0.159872   1.4752
 15.3000    23.4567   0.283826   1.2100   0.160160  -0.6477
 15.3200    32.5886   0.454043   1.3933   0.072514   1.3885
 15.3400    21.2943   0.255969   1.2021   0.151797  -1.2339
 15.3600    17.6719   0.279311   1.5805   0.213227  -0.1026
 15.3800    26.1549   0.393337   1.5039   0.189696  -1.4357
 15.4000    22.9317   0.198619   0.8661   0.153542  -1.2620
 15.4200    31.0552   0.550828   1.7737   0.288695   1.3806
 15.4400    30.8970   0.288204   0.9328   0.105671   0.1326
 15.4600    23.2967   0.345723   1.4840   0.188827   0.9887
 15.4800    29.4844   0.363303   1.2322   0.194700  -0.9620
 15.5000    23.0444   0.308895   1.3404   0.214379   1.0341
 15.5200    24.7850   0.227340   0.9172   0.130767  -1.2354
 15.5400    24.3608   0.247530   1.0161   0.187428  -1.1879
 15.5600    18.3068   0.230143   1.2571   0.217429  -0.8540
 15.5800    18.1433   0.199007   1.0969   0.119811   0.2804
 15.6000    32.3443   0.560494   1.7329   0.050098   0.3867
 15.6200    24.4466   0.324241   1.3263   0.191876   1.0773
 15.6400    19.1761   0.273654   1.4271   0.188573   0.8735
 15.6600    29.2103   0.247647   0.8478   0.090322  -1.3034
 15.6800    29.7698   0.365488   1.2277   0.283807   1.1908
 15.7000    25.7020   0.383646   1.4927   0.203251   1.2317
 15.7200    30.9863   0.353448   1.1407   0.292125  -1.2074
 15.7400    28.3478   0.253952   0.8958   0.111861  -0.3116
 15.7600    30.9984   0.432800   1.3962   0.266122  -0.7809
 15.7800    24.3848   0.380025   1.5585   0.224773   0.1505
 15.8000    22.7010   0.268385   1.1823   0.108656  -1.0802
 15.8200    20.7374   0.364292   1.7567   0.169202   0.5358
 15.8400    33.1361   0.463929   1.4001   0.089166   0.7694
 15.8600    24.2529   0.219176   0.9037   0.120016   0.6007
 15.8800    26.0439   0.275090   1.0563   0.158278  -0.9685
 15.9000    29.2598   0.317266   1.0843   0.086630  -0.7259
 15.9200    19.9633   0.297822   1.4918   0.187670   0.9364
 15.9400    25.7634   0.438194   1.7008   0.189117  -0.2693
 15.9600    23.6425   0.359188   1.5192   0.123079  -0.0150
 15.9800    21.0540   0.358270   1.7017   0.201380   0.2685
 16.0000    27.7806   0.403424   1.4522   0.160471  -0.6790
 16.0200    27.5970   0.251933   0.9129   0.181047  -0.5528
 16.0400    26.2060   0.447627   1.7081   0.174093  -1.3125
 16.0600    24.7590   0.314023   1.2683   0.159057   0.2886
 16.0800    26.3199   0.432206   1.6421   0.188883   0.4606
 16.1000    28.2891   0.278294   0.9837   0.166830   0.6331
 16.1200    19.3201   0.197361   1.0215   0.161387   0.9954
 16.1400    31.6191   0.340168   1.0758   0.000000   1.2832
 16.1600    33.2375   0.361354   1.0872   0.226658   0.6086
 16.1800    20.9006   0.302754   1.4485   0.106631  -0.8579
 16.2000    20.0202   0.203290   1.0154   0.165557  -0.9615
 16.2200    33.0684   0.270267   0.8173   0.245460   0.4395
 16.2400    28.6825   0.338547   1.1803   0.112162   1.3166
 16.2600    31.3523   0.460668   1.4693   0.218381   0.9431
 16.2800    32.7892   0.407363   1.2424   0.068392   0.7924
 16.3000    26.8447   0.325412   1.2122   0.072968   1.1786
 16.3200    32.9310   0.582270   1.7682   0.258568  -0.5552
 16.3400    26.6241   0.275747   1.0357   0.175130   0.3090
 16.3600    28.8169   0.445999   1.5477   0.165417   0.6709
 16.3800    19.6223   0.180161   0.9181   0.165328  -1.3481
 16.4000    32.7637   0.581451   1.7747   0.115512   0.6649
 16.4200    29.2569   0.356006   1.2168   0.282375   0.1501
 16.4400    26.1103   0.455642   1.7451   0.115036   1.0181
 16.4600    28.9882   0.464081   1.6009   0.240432   1.4437
 16.4800    18.8693   0.289272   1.5330   0.250806  -0.2060
 16.5000    22.3711   0.344832   1.5414   0.099101   0.9860
 16.5200    24.4659   0.332485   1.3590   0.190534  -0.3794
 16.5400    33.0993   0.292640   0.8841   0.157807   0.2341
 16.5600    20.0793   0.206914   1.0305   0.210518  -0.9501
 16.5800    22.5914   0.301370   1.3340   0.240217   0.1816
 16.6000    32.6808   0.508012   1.5545   0.158181   1.1207
 16.6200    31.4955   0.317034   1.0066   0.243561   0.4471
 16.6400    28.3708   0.485266   1.7104   0.164632   0.9928
 16.6600    31.6917   0.286803   0.9050   0.215188   0.1496
 16.6800    31.6341   0.434578   1.3738   0.126490   0.9406
 16.7000    32.3752   0.408127   1.2606   0.110668  -0.3745
 16.7200    27.6576   0.248745   0.8994   0.137178   1.2804
 16.7400    23.4263   0.260736   1.1130   0.190589  -0.4973
 16.7600    31.1853   0.527258   1.6907   0.150825   1.1181
 16.7800    31.1880   0.451699   1.4483   0.165648   0.4873
 16.8000    23.0162   0.206308   0.8964   0.142482  -0.1509
 16.8200    32.9509   0.410995   1.2473   0.302871  -0.3948
 16.8400    33.7407   0.391408   1.1600   0.233692  -1.0652
 16.8600    30.7581   0.253442   0.8240   0.227329  -0.4331
 16.8800    28.5329   0.438405   1.5365   0.208011  -1.4318
 16.9000    26.8757   0.223660   0.8322   0.175856  -0.9879
 16.9200    21.8365   0.361682   1.6563   0.200038  -0.8778
 16.9400    28.3452   0.434544   1.5330   0.256531  -1.1603
 16.9600    33.4244   0.419567   1.2553   0.200225   0.1864
 16.9800    29.3893   0.365098   1.2423   0.139222  -0.9208
 17.0000    25.7343   0.442518   1.7196   0.217471  -1.1219
 17.0200    25.0709   0.207458   0.8275   0.039782  -0.8126
 17.0400    25.9068   0.254810   0.9836   0.229692   0.7238
 17.0600    20.7533   0.346298   1.6686   0.167158  -0.3281
 17.0800    24.9588   0.399273   1.5997   0.194457   1.1422
 17.1000    20.6901   0.308764   1.4923   0.168990   1.2609
 17.1200    26.2648   0.372772   1.4193   0.113528   0.5569
 17.1400    25.1986   0.318291   1.2631   0.116908   0.4400
 17.1600    22.8329   0.263693   1.1549   0.208105  -0.4598
 17.1800    31.5358   0.296626   0.9406   0.091486   0.2438
 17.2000    20.4700   0.348482   1.7024   0.237024   1.2908
 17.2200    26.7345   0.221636   0.8290   0.166738  -0.0175
 17.2400    26.4684   0.248215   0.9378   0.174174  -0.1428
 17.2600    25.4984   0.234408   0.9193   0.194734   1.3763
 17.2800    27.1227   0.239218   0.8820   0.159218   1.1881
 17.3000    21.4538   0.327629   1.5271   0.177637   1.2778
 17.3200    27.6388   0.358089   1.2956   0.135113  -0.4227
 17.3400    25.8043   0.366526   1.4204   0.194937   0.0431
 17.3600    31.9963   0.441108   1.3786   0.220581  -0.7952
 17.3800    31.2882   0.335356   1.0718   0.252212  -1.0305
 17.4000    21.4935   0.266572   1.2402   0.131334   0.5155
 17.4200    23.6079   0.222916   0.9442   0.144882   0.3675
 17.4400    31.3584   0.321664   1.0258   0.208899   0.9364
 17.4600    27.2729   0.282467   1.0357   0.090778  -0.9319
 17.4800    23.5679   0.254568   1.0801   0.180955   0.5870
 17.5000    27.4067   0.371053   1.3539   0.112950   0.3128
 17.5200    28.6733   0.484451   1.6896   0.196766  -0.0560
 17.5400    26.9339   0.420395   1.5608   0.160378  -0.9123
 17.5600    29.9383   0.380075   1.2695   0.149299   0.5956
 17.5800    22.0671   0.270661   1.2265   0.201970  -0.4285
 17.6000    20.0980   0.295030   1.4680   0.234740   0.8495
 17.6200    32.5509   0.583965   1.7940   0.168098  -0.0532
 17.6400    20.4385   0.255972   1.2524   0.218763  -0.0713
 17.6600    20.8331   0.234815   1.1271   0.203638  -1.0382
 17.6800    31.5178   0.284176   0.9016   0.203564   0.3749
 17.7000    32.3801   0.507733   1.5680   0.240867   1.0156
 17.7200    25.3150   0.277737   1.0971   0.195502  -0.6938
 17.7400    24.9973   0.338577   1.3545   0.237504   0.5096
 17.7600    28.8212   0.411113   1.4264   0.243541  -1.4365
 17.7800    29.7818   0.358836   1.2049   0.183921   0.6745
 17.8000    20.2469   0.348356   1.7205   0.216909  -0.5139
 17.8200    23.0712   0.223120   0.9671   0.248987  -0.9441
 17.8400    28.8203   0.454045   1.5754   0.173946   1.2862
 17.8600    34.6908   0.566068   1.6318   0.244047   1.0228
 17.8800    21.5235   0.196533   0.9131   0.152291  -0.0540
 17.9000    27.3257   0.398099   1.4569   0.282848   1.0303
 17.9200    32.2916   0.557991   1.7280   0.223368   1.4533
 17.9400    21.5156   0.329025   1.5292   0.200341  -1.3525
 17.9600    25.1443   0.222295   0.8841   0.183174   1.3441
 17.9800    22.3514   0.297272   1.3300   0.118779  -0.0732
 18.0000    24.5972   0.437123   1.7771   0.205249   0.6727
 18.0200    24.1421   0.356938   1.4785   0.140749   1.2875
 18.0400    33.1876   0.370546   1.1165   0.176090  -1.2145
 18.0600    24.4549   0.327687   1.3400   0.163525   1.2163
 18.0800    20.6009   0.215583   1.0465   0.143226   1.3497
 18.1000    22.8030   0.194925   0.8548   0.169367   0.7049
 18.1200    25.4831   0.428557   1.6817   0.107775  -0.9155
 18.1400    30.9231   0.544423   1.7606   0.049769  -1.3404
 18.1600    22.8127   0.264856   1.1610   0.200385   1.3994
 18.1800    33.1786   0.477884   1.4403   0.160841   0.9105
 18.2000    28.2396   0.386553   1.3688   0.160522   0.1373
 18.2200    26.5172   0.284759   1.0739   0.178283  -0.8436
 18.2400    33.3235   0.543612   1.6313   0.234837   1.1208
 18.2600    34.6977   0.533305   1.5370   0.117604   0.5372
 18.2800    28.8083   0.356702   1.2382   0.197797  -0.9773
 18.3000    23.9823   0.369037   1.5388   0.038085   0.0240
 18.3200    27.3082   0.409212   1.4985   0.243172  -0.3322
 18.3400    31.6889   0.402069   1.2688   0.165884   0.3940
 18.3600    21.4551   0.367847   1.7145   0.190619   0.9713
 18.3800    31.5606   0.349345   1.1069   0.160509   1.1595
 18.4000    32.5717   0.545494   1.6748   0.148350  -0.0691
 18.4200    25.0829   0.446876   1.7816   0.142235   0.9934
 18.4400    31.5317   0.486169   1.5418   0.198914  -0.1190
 18.4600    34.6194   0.493454   1.4254   0.109138  -1.1644
 18.4800    25.2248   0.448399   1.7776   0.237688  -0.2134
 18.5000    30.5250   0.550814   1.8045   0.000000  -0.0345
 18.5200    21.8882   0.235669   1.0767   0.118950   0.8091
 18.5400    22.2918   0.305101   1.3687   0.182330   0.5343
 18.5600    20.4412   0.256861   1.2566   0.191499  -0.8325
 18.5800    29.8759   0.279986   0.9372   0.280955  -0.4375
 18.6000    32.4372   0.321627   0.9915   0.287728   0.5555
 18.6200    30.6513   0.265028   0.8647   0.046599  -0.3234
 18.6400    25.6389   0.394174   1.5374   0.160580  -1.1523
 18.6600    29.7037   0.517922   1.7436   0.185560   1.0964
 18.6800    27.3718   0.220957   0.8072   0.187170   0.0110
 18.7000    26.1538   0.441936   1.6898   0.264719  -0.5693
 18.7200    23.5177   0.249694   1.0617   0.109452   0.2549
 18.7400    24.7590   0.377265   1.5237   0.239121  -0.7734
 18.7600    34.4401   0.614580   1.7845   0.199507   0.3005
 18.7800    31.4416   0.347228   1.1044   0.214621  -0.0307
 18.8000    28.3726   0.465877   1.6420   0.206214   0.3577
 18.8200    34.3462   0.603799   1.7580   0.111343  -0.6896
 18.8400    24.7865   0.381271   1.5382   0.244317   0.6682
 18.8600    27.4118   0.281640   1.0274   0.159860   0.2732
 18.8800    31.6073   0.345803   1.0941   0.122569   1.1928
 18.9000    31.5894   0.520106   1.6465   0.151553   1.2527
 18.9200    27.9388   0.309297   1.1071   0.201360   0.5269
 18.9400    21.1774   0.263472   1.2441   0.311822  -1.3885
 18.9600    26.7246   0.221735   0.8297   0.153617  -1.4915
 18.9800    27.5470   0.413011   1.4993   0.169292  -1.2067
 19.0000    29.1162   0.409169   1.4053   0.285408   0.0734
 19.0200    29.8350   0.329594   1.1047   0.186634   0.8718
 19.0400    22.3997   0.203264   0.9074   0.178761  -0.0734
 19.0600    30.6577   0.386217   1.2598   0.173644  -0.3101
 19.0800    24.1193   0.398500   1.6522   0.145222   1.4085
 19.1000    28.2510   0.298081   1.0551   0.211537   1.1490
 19.1200    25.8861   0.433468   1.6745   0.173089   0.6468
 19.1400    24.5345   0.371785   1.5154   0.243454  -1.3990
 19.1600    35.1239   0.346230   0.9857   0.181758   0.4043
 19.1800    22.3386   0.392678   1.7578   0.160863  -0.6645
 19.2000    22.8712   0.234065   1.0234   0.217167  -1.3130
 19.2200    22.2652   0.182825   0.8211   0.321477  -1.3786
 19.2400    23.6781   0.244598   1.0330   0.168059   0.7203
 19.2600    32.0360   0.473041   1.4766   0.169478  -0.3226
 19.2800    25.8425   0.324044   1.2539   0.261625  -1.3307
 19.3000    34.0488   0.373271   1.0963   0.186464   1.1055
 19.3200    24.9474   0.252785   1.0133   0.137485  -0.9163
 19.3400    30.4009   0.246212   0.8099   0.211628   1.1450
 19.3600    25.6611   0.206402   0.8043   0.241388  -1.1329
 19.3800    25.8835   0.457643   1.7681   0.228465  -0.8013
 19.4000    33.4161   0.498350   1.4913   0.203726   0.3869
 19.4200    31.7119   0.486588   1.5344   0.322011  -1.4015
 19.4400    32.5039   0.527250   1.6221   0.243780  -1.4205
 19.4600    25.8024   0.231890   0.8987   0.120978   0.0302
 19.4800    26.0171   0.372422   1.4315   0.158644   0.0436
 19.5000    29.2559   0.446617   1.5266   0.217905  -0.2750
 19.5200    23.8977   0.294973   1.2343   0.161623  -0.0830
 19.5400    35.8880   0.587230   1.6363   0.276756   0.1730
 19.5600    33.8076   0.374375   1.1074   0.230201   0.2687
 19.5800    31.6945   0.310751   0.9805   0.257060  -1.2137
 19.6000    24.5023   0.268643   1.0964   0.153237  -0.4098
 19.6200    32.5427   0.442499   1.3597   0.175456  -1.0378
 19.6400    30.2437   0.360093   1.1906   0.135027   1.0886
 19.6600    26.6043   0.464122   1.7445   0.183731  -0.3064
 19.6800    35.1582   0.300793   0.8555   0.149155  -0.9623
 19.7000    24.2922   0.401419   1.6525   0.142006   1.1942
 19.7200    31.7154   0.332829   1.0494   0.163270  -1.4888
 19.7400    33.8411   0.440200   1.3008   0.165168   0.5378
 19.7600    28.7216   0.399834   1.3921   0.350650   0.0946
 19.7800    33.8520   0.387010   1.1432   0.180851  -0.3646
 19.8000    25.2620   0.313890   1.2425   0.182140   0.2867
 19.8200    33.9787   0.282516   0.8314   0.304927  -1.1835
 19.8400    27.1533   0.264786   0.9752   0.265355   0.6944
 19.8600    32.5316   0.471148   1.4483   0.125851  -1.0778
 19.8800    22.4496   0.186994   0.8330   0.215359   1.1019
 19.9000    33.1594   0.543108   1.6379   0.294646   0.0831
 19.9200    29.5346   0.236410   0.8005   0.160107   0.0033
 19.9400    23.6920   0.238030   1.0047   0.188477   1.2204
 19.9600    21.6514   0.224147   1.0353   0.220588  -0.5561
 19.9800    36.2069   0.566737   1.5653   0.158142   0.5392
 20.0000    24.4062   0.375546   1.5387   0.222522  -1.3465
