#GEFID= 1, 1, 2
#FILEOWNER= Geotechnical Engineering B.V.
#FILEDATE= 2024, 9, 16
#PROJECTID= 2024-001, Site Investigation Project
#COLUMN= 6
#COLUMNINFO= 1, m, Penetration length, 1
#COLUMNINFO= 2, MPa, Cone resistance, 2
#COLUMNINFO= 3, MPa, Sleeve friction, 3
#COLUMNINFO= 4, %, Friction ratio, 4
#COLUMNINFO= 5, MPa, Pore pressure u2, 6
#COLUMNINFO= 6, degrees, Inclination, 8
#XYID= 31000, 155021.68, 462872.83, 0.02, 0.02
#ZID= 31000, 3.38, 0.02
#TESTID= CPT-2024-004
#STARTDATE= 2024, 9, 16
#STARTTIME= 8, 0, 0
#MEASUREMENTTEXT= 1, CPT-2024-004
#MEASUREMENTTEXT= 2, Site Investigation
#MEASUREMENTTEXT= 4, Geotechnical Engineering B.V.
#MEASUREMENTTEXT= 6, Fugro CPT Rig Model F200
#MEASUREMENTTEXT= 9, Electronic cone type E
#MEASUREMENTVAR= 1, 20.00, m, Cone penetration depth
#MEASUREMENTVAR= 2, 2.00, cm/s, Cone penetration rate
#MEASUREMENTVAR= 4, 0.00, m, Cone pre-excavated depth
#MEASUREMENTVAR= 5, 3.38, m, Ground level reference
#MEASUREMENTVAR= 6, 3.38, m, Ground water level
#MEASUREMENTVAR= 9, 0.00, m, Final depth
#MEASUREMENTVAR= 13, 10.00, cm2, Cone surface area
#MEASUREMENTVAR= 16, 0.00, m, Cone apex height
#MEASUREMENTVAR= 20, 90.00, degrees, Cone apex angle
#COLUMNVOID= 1, -9999.99
#COLUMNVOID= 2, -9999.99
#COLUMNVOID= 3, -9999.99
#COLUMNVOID= 4, -9999.99
#COLUMNVOID= 5, -9999.99
#COLUMNVOID= 6, -9999.99
#LASTSCAN= 1
#REPORTCODE= GEF-CPT-Report, 1, 1, 2
#EOH=
  0.0000     0.8188   0.032848   4.0116   0.008193   0.5396
  0.0200     1.1484   0.040354   3.5139   0.000000  -1.3996
  0.0400     1.9238   0.083986   4.3656   0.014506  -0.8758
  0.0600     1.9254   0.080912   4.2024   0.000000   1.1140
  0.0800     1.4397   0.060558   4.2062   0.000000  -1.2649
  0.1000     1.7549   0.056213   3.2033   0.011464  -0.0472
  0.1200     1.0955   0.033655   3.0721   0.000000  -0.5988
  0.1400     1.4055   0.049104   3.4937   0.054573   0.2811
  0.1600     2.0886   0.083038   3.9757   0.000000   0.8531
  0.1800     1.6081   0.061900   3.8493   0.000000   0.0377
  0.2000     1.0169   0.053527   5.2635   0.000000   1.3234
  0.2200     1.9935   0.073015   3.6627   0.000000  -0.6083
  0.2400     1.0154   0.040228   3.9618   0.008103  -0.0610
  0.2600     1.1617   0.047589   4.0966   0.000000   0.4646
  0.2800     0.5577   0.023723   4.2539   0.000000  -0.1390
  0.3000     1.6563   0.049188   2.9697   0.019370  -0.4660
  0.3200     1.8734   0.072017   3.8443   0.012015   0.1742
  0.3400     1.7942   0.084429   4.7057   0.000000   0.6285
  0.3600     1.3991   0.062037   4.4340   0.025743  -0.6661
  0.3800     1.8271   0.065989   3.6116   0.008862   0.0516
  0.4000     1.5137   0.065356   4.3176   0.000000  -0.7241
  0.4200     1.9733   0.092833   4.7045   0.000000  -0.6489
  0.4400     1.7717   0.056547   3.1917   0.000000  -0.8020
  0.4600     1.0199   0.042689   4.1856   0.014921  -0.9471
  0.4800     1.4680   0.064157   4.3703   0.006218   0.7477
  0.5000     1.4507   0.061521   4.2409   0.003860   1.3935
  0.5200     1.8325   0.075767   4.1346   0.000000  -0.2142
  0.5400     0.6594   0.021283   3.2275   0.003261  -0.2578
  0.5600     0.6157   0.025901   4.2067   0.011958   0.1032
  0.5800     1.6488   0.076268   4.6256   0.000000  -1.2948
  0.6000     0.8965   0.037151   4.1442   0.005157   1.3606
  0.6200     0.5684   0.032012   5.6319   0.026473  -0.3953
  0.6400     1.1654   0.043667   3.7471   0.000000   1.4998
  0.6600     1.4350   0.069065   4.8128   0.036289   0.9001
  0.6800     2.0496   0.062598   3.0542   0.000000  -0.2613
  0.7000     0.7080   0.024690   3.4875   0.000000  -1.1195
  0.7200     1.5607   0.054577   3.4970   0.000000   0.7344
  0.7400     1.0652   0.045126   4.2364   0.024572  -0.7016
  0.7600     0.8483   0.036717   4.3283   0.000000   0.4744
  0.7800     0.8122   0.032418   3.9915   0.010958   0.2717
  0.8000     1.7223   0.054327   3.1543   0.000000   0.1146
  0.8200     1.1336   0.053648   4.7326   0.037705  -0.0411
  0.8400     1.3786   0.071247   5.1681   0.000000  -0.4098
  0.8600     2.0132   0.084706   4.2076   0.000000   0.5568
  0.8800     1.5408   0.073487   4.7694   0.000000   0.5659
  0.9000     2.0620   0.072591   3.5204   0.000000   1.2551
  0.9200     0.8241   0.036261   4.4000   0.007538   1.4013
  0.9400     0.9616   0.048314   5.0244   0.005536  -1.4337
  0.9600     1.6034   0.056328   3.5129   0.015407  -0.8795
  0.9800     1.6741   0.082564   4.9318   0.013810  -0.3990
  1.0000     2.0338   0.062121   3.0544   0.040729  -0.6473
  1.0200     1.1326   0.046469   4.1028   0.051261   0.6398
  1.0400     1.9580   0.088078   4.4982   0.025098   0.8073
  1.0600     1.2531   0.047620   3.8003   0.028609   1.4422
  1.0800     2.0528   0.093085   4.5346   0.000000   0.8723
  1.1000     1.0166   0.047256   4.6485   0.000000  -0.3235
  1.1200     0.7283   0.021280   2.9220   0.037024   1.2823
  1.1400     0.8195   0.038263   4.6691   0.000000   1.0838
  1.1600     1.4263   0.048825   3.4231   0.072911  -0.4182
  1.1800     1.9782   0.063848   3.2275   0.000000  -0.8881
  1.2000     1.6265   0.052276   3.2140   0.000000   1.4099
  1.2200     1.4213   0.057491   4.0450   0.003193  -0.3443
  1.2400     0.6704   0.021942   3.2731   0.035171   0.9265
  1.2600     0.8665   0.035459   4.0924   0.022293   1.0966
  1.2800     1.4391   0.057627   4.0044   0.000000  -1.2064
  1.3000     1.6626   0.082557   4.9655   0.040888  -1.4057
  1.3200     0.8493   0.028112   3.3100   0.000000  -0.1881
  1.3400     1.0572   0.050255   4.7535   0.000000   0.1222
  1.3600     0.6875   0.020965   3.0496   0.016986  -0.1410
  1.3800     1.2746   0.058680   4.6038   0.010679  -0.9011
  1.4000     1.0103   0.035279   3.4920   0.000000   0.4747
  1.4200     1.2759   0.062551   4.9024   0.004276  -0.6857
  1.4400     1.6997   0.060042   3.5325   0.008842  -0.1909
  1.4600     0.9944   0.038662   3.8880   0.011645  -0.1095
  1.4800     1.2667   0.042343   3.3428   0.000000  -0.2234
  1.5000     1.1921   0.057784   4.8471   0.007165   1.2327
  1.5200     1.2653   0.045083   3.5629   0.043512   0.7768
  1.5400     1.4943   0.057743   3.8642   0.018138   1.0779
  1.5600     0.9123   0.035354   3.8754   0.012627  -0.5867
  1.5800     1.6641   0.076789   4.6144   0.000000  -0.7710
  1.6000     2.1939   0.087767   4.0005   0.013238   0.5566
  1.6200     1.1791   0.053313   4.5216   0.000000   0.7682
  1.6400     1.6423   0.054703   3.3310   0.000000   0.9283
  1.6600     2.0046   0.070606   3.5221   0.019255   0.1470
  1.6800     0.7568   0.026542   3.5071   0.052101  -1.3500
  1.7000     1.6321   0.065580   4.0180   0.037762  -1.0549
  1.7200     1.5847   0.067958   4.2883   0.013945   0.9323
  1.7400     1.5587   0.058651   3.7629   0.033178   1.4113
  1.7600     2.0182   0.094629   4.6887   0.001332  -0.6983
  1.7800     0.8497   0.034074   4.0098   0.007441  -0.0552
  1.8000     1.0961   0.028372   2.5884   0.030689  -0.7704
  1.8200     1.0116   0.035695   3.5287   0.036443   1.4769
  1.8400     1.0781   0.034493   3.1994   0.028073   1.2302
  1.8600     0.7442   0.034325   4.6121   0.025873  -1.0374
  1.8800     1.5801   0.055591   3.5182   0.020185   0.4775
  1.9000     2.0533   0.077928   3.7952   0.009100   1.1004
  1.9200     0.9565   0.030298   3.1678   0.018219  -0.7054
  1.9400     1.5359   0.064759   4.2164   0.000000   0.3035
  1.9600     2.0071   0.073591   3.6665   0.044763   0.3591
  1.9800     2.0573   0.079065   3.8430   0.009415   0.6064
  2.0000     1.2638   0.055552   4.3957   0.033753  -0.3321
  2.0200     1.3552   0.059811   4.4134   0.016616  -1.0321
  2.0400     1.4571   0.044865   3.0791   0.000000  -0.0425
  2.0600     1.9535   0.054529   2.7913   0.023094  -1.2767
  2.0800     1.2303   0.037375   3.0380   0.033914  -0.3392
  2.1000     1.8580   0.086594   4.6606   0.003959   0.4051
  2.1200     2.0440   0.074549   3.6471   0.035379   1.4034
  2.1400     2.1592   0.067845   3.1422   0.016558  -1.3047
  2.1600     2.0986   0.097868   4.6635   0.040035   1.2485
  2.1800     2.0361   0.092223   4.5293   0.014101   1.2713
  2.2000     1.0683   0.033006   3.0897   0.028057   1.4661
  2.2200     1.6847   0.067892   4.0300   0.041696   0.5793
  2.2400     1.8462   0.092051   4.9859   0.012734   1.0675
  2.2600     1.8629   0.078801   4.2300   0.000000  -1.4669
  2.2800     0.9879   0.039142   3.9620   0.033201  -0.5837
  2.3000     1.0098   0.041550   4.1146   0.021964   0.2483
  2.3200     1.3453   0.047817   3.5544   0.050758   0.4467
  2.3400     1.1424   0.041995   3.6760   0.017431  -1.3614
  2.3600     2.2404   0.073065   3.2613   0.057938  -0.3606
  2.3800     0.9742   0.041565   4.2664   0.000000   1.0064
  2.4000     2.0281   0.094606   4.6647   0.039758   1.4182
  2.4200     1.9872   0.093716   4.7160   0.019944   0.0253
  2.4400     1.6972   0.063224   3.7251   0.018370  -0.1851
  2.4600     1.2409   0.042056   3.3891   0.017245  -0.2074
  2.4800     2.1079   0.090928   4.3136   0.035676  -0.4172
  2.5000     1.8807   0.060961   3.2414   0.024130   1.4606
  2.5200     0.8980   0.040480   4.5078   0.015756   0.9824
  2.5400     1.1523   0.050593   4.3905   0.025079  -1.2301
  2.5600     0.8284   0.043893   5.2987   0.050887   1.1161
  2.5800     1.6785   0.057862   3.4472   0.008616   0.4472
  2.6000     1.9530   0.078828   4.0362   0.040018   1.0645
  2.6200     1.4349   0.045781   3.1905   0.001338  -0.2901
  2.6400     1.3338   0.055667   4.1736   0.018703  -0.3183
  2.6600     1.6616   0.081511   4.9056   0.024373  -0.4182
  2.6800     1.2135   0.060109   4.9533   0.030846  -1.3836
  2.7000     0.9335   0.045328   4.8554   0.002397  -0.9776
  2.7200     0.9699   0.035427   3.6525   0.044320  -0.4638
  2.7400     1.5569   0.074799   4.8044   0.033678   0.3910
  2.7600     1.6183   0.061053   3.7728   0.025715   0.5343
  2.7800     1.8669   0.072224   3.8687   0.042378   1.3898
  2.8000     0.7831   0.032139   4.1039   0.018628  -0.1485
  2.8200     1.6295   0.053996   3.3137   0.057270   0.9593
  2.8400     1.1369   0.051080   4.4928   0.004848  -0.7860
  2.8600     0.8136   0.045074   5.5398   0.019086   0.7364
  2.8800     2.1599   0.069139   3.2010   0.036230   0.5700
  2.9000     1.8242   0.053068   2.9092   0.053398  -0.6920
  2.9200     1.2533   0.054587   4.3553   0.040722   0.0734
  2.9400     1.3611   0.049788   3.6579   0.016778   0.9848
  2.9600     2.2610   0.079190   3.5024   0.037109  -0.7015
  2.9800     1.0788   0.043096   3.9949   0.025870  -0.9324
  3.0000    14.6878   0.095035   0.6470   0.046235   0.7832
  3.0200    13.4727   0.194844   1.4462   0.086782   1.3470
  3.0400    14.7210   0.149903   1.0183   0.051512   0.4323
  3.0600    13.2001   0.188373   1.4271   0.006892   0.7909
  3.0800    10.7516   0.118917   1.1060   0.000000   0.6853
  3.1000    14.1655   0.139958   0.9880   0.022578   0.5571
  3.1200    13.4252   0.129721   0.9662   0.027846  -0.9899
  3.1400    14.5734   0.185387   1.2721   0.025567  -0.2020
  3.1600    11.9882   0.154384   1.2878   0.065680  -0.6791
  3.1800     9.1782   0.115327   1.2565   0.000000   1.0675
  3.2000    10.1528   0.052772   0.5198   0.000000   0.3757
  3.2200    14.8253   0.154646   1.0431   0.002788   0.8224
  3.2400    11.0916   0.092238   0.8316   0.044113   1.3671
  3.2600    12.0826   0.164769   1.3637   0.049232   0.0659
  3.2800    12.1172   0.162198   1.3386   0.087357   0.2761
  3.3000     8.6102   0.081283   0.9440   0.163911  -0.9036
  3.3200    14.5463   0.204488   1.4058   0.077931  -0.3283
  3.3400    12.5571   0.143769   1.1449   0.028759  -0.1888
  3.3600    10.7536   0.065661   0.6106   0.025432   0.1799
  3.3800    10.0314   0.064715   0.6451   0.044573   0.8212
  3.4000    12.1041   0.104715   0.8651   0.035182   1.3919
  3.4200    12.9276   0.124240   0.9610   0.009937   0.9382
  3.4400    13.8922   0.167962   1.2090   0.027431   1.1695
  3.4600    11.4281   0.152635   1.3356   0.046173  -1.1328
  3.4800    14.2155   0.181558   1.2772   0.117365  -0.4512
  3.5000    14.0864   0.199935   1.4193   0.063907   0.1464
  3.5200    10.9949   0.092250   0.8390   0.048453  -0.9381
  3.5400    11.4419   0.110621   0.9668   0.014086   0.6847
  3.5600    14.1868   0.102792   0.7246   0.067805   0.3281
  3.5800    10.3793   0.115461   1.1124   0.000000  -0.0300
  3.6000    14.8584   0.111867   0.7529   0.017964   0.7624
  3.6200    15.1177   0.222750   1.4734   0.067901  -1.3610
  3.6400    12.6195   0.185077   1.4666   0.000000   1.1322
  3.6600    10.9410   0.080986   0.7402   0.000000   1.3917
  3.6800    14.9001   0.137131   0.9203   0.000000  -0.6761
  3.7000    13.6615   0.164157   1.2016   0.060503   0.0007
  3.7200    15.4084   0.206426   1.3397   0.000000  -0.5967
  3.7400    11.9007   0.154125   1.2951   0.049162   0.7706
  3.7600     9.0715   0.093608   1.0319   0.075248  -1.4076
  3.7800    11.3307   0.136946   1.2086   0.076503   1.2748
  3.8000    13.6536   0.102856   0.7533   0.000000  -0.7728
  3.8200    14.1019   0.179308   1.2715   0.096697   1.0146
  3.8400     9.0659   0.083813   0.9245   0.078778  -1.0975
  3.8600    11.5945   0.095375   0.8226   0.075608  -0.3091
  3.8800    11.3948   0.115168   1.0107   0.000000  -1.2412
  3.9000     9.8036   0.079631   0.8123   0.006639  -0.7723
  3.9200    14.9229   0.217847   1.4598   0.102882   1.2417
  3.9400    11.9815   0.138004   1.1518   0.000000  -0.3564
  3.9600     9.2916   0.055560   0.5980   0.060878  -0.0515
  3.9800     9.9939   0.091499   0.9156   0.068535  -1.2432
  4.0000    13.1832   0.089655   0.6801   0.075904  -0.2355
  4.0200     8.9918   0.053693   0.5971   0.087380   0.2613
  4.0400    11.0971   0.136654   1.2314   0.024526   0.2428
  4.0600    12.8488   0.145400   1.1316   0.000000  -1.0579
  4.0800    13.9902   0.089532   0.6400   0.052191  -0.5046
  4.1000    10.2915   0.078758   0.7653   0.087010  -0.3415
  4.1200    10.4461   0.110039   1.0534   0.147525   0.4327
  4.1400    13.4842   0.157141   1.1654   0.000000  -1.1894
  4.1600     9.8260   0.103057   1.0488   0.081281   1.0395
  4.1800    10.8973   0.085891   0.7882   0.054431  -0.8215
  4.2000    10.7792   0.080837   0.7499   0.016983  -0.3715
  4.2200    13.8529   0.171296   1.2365   0.000890  -1.4539
  4.2400    13.8187   0.141524   1.0241   0.038733   0.0960
  4.2600     8.8232   0.124723   1.4136   0.053008  -0.6192
  4.2800     9.6276   0.103844   1.0786   0.014959   0.1220
  4.3000    12.1036   0.161141   1.3313   0.162643  -0.0744
  4.3200    10.9858   0.080944   0.7368   0.013465   1.1815
  4.3400    14.0541   0.143606   1.0218   0.078397   1.4035
  4.3600    14.1533   0.130620   0.9229   0.081440   0.5795
  4.3800    10.3696   0.122101   1.1775   0.026737   0.4588
  4.4000    12.8865   0.130880   1.0156   0.003273  -1.0451
  4.4200    11.2319   0.063296   0.5635   0.067843  -0.7826
  4.4400     9.3076   0.110336   1.1854   0.046282  -0.5802
  4.4600    12.9246   0.160356   1.2407   0.080861  -0.3384
  4.4800     9.7513   0.126168   1.2939   0.051758  -0.3930
  4.5000    14.9949   0.214152   1.4282   0.000000  -0.9367
  4.5200    13.5650   0.100923   0.7440   0.000000   0.6736
  4.5400    14.1492   0.208646   1.4746   0.002334   0.4166
  4.5600    11.1115   0.162587   1.4632   0.020027  -1.3560
  4.5800    10.7108   0.091517   0.8544   0.041987   0.0083
  4.6000     9.5521   0.121695   1.2740   0.000000  -0.8087
  4.6200     8.9986   0.055215   0.6136   0.088706  -1.0628
  4.6400    12.0765   0.159493   1.3207   0.117355   0.3398
  4.6600    15.7290   0.202917   1.2901   0.000000  -0.0118
  4.6800    10.6802   0.140280   1.3135   0.100795  -0.9221
  4.7000    10.5952   0.068313   0.6448   0.089843  -1.3524
  4.7200     9.1450   0.086950   0.9508   0.067345  -0.3753
  4.7400    12.1125   0.148606   1.2269   0.037354   1.4127
  4.7600    11.0581   0.138233   1.2501   0.029699  -1.2900
  4.7800    11.8503   0.064865   0.5474   0.141688  -0.3083
  4.8000    10.4345   0.117804   1.1290   0.099298   1.1770
  4.8200    14.2400   0.150688   1.0582   0.114793  -0.5820
  4.8400    10.1320   0.126135   1.2449   0.122625   0.6861
  4.8600    14.3014   0.213905   1.4957   0.000000   0.6728
  4.8800     9.5546   0.066805   0.6992   0.010744  -0.1485
  4.9000    14.4645   0.179662   1.2421   0.114975  -0.6849
  4.9200    13.4267   0.111440   0.8300   0.038101  -0.6010
  4.9400    12.6398   0.126813   1.0033   0.063639   1.4153
  4.9600    12.5635   0.145310   1.1566   0.065194  -0.8450
  4.9800     9.4314   0.066368   0.7037   0.052056   0.2159
  5.0000     9.3299   0.087449   0.9373   0.000000   1.1690
  5.0200    10.1701   0.104622   1.0287   0.023699   0.2818
  5.0400    15.6978   0.108141   0.6889   0.000000   1.4560
  5.0600    11.4650   0.076935   0.6710   0.000000   1.2774
  5.0800    14.5359   0.168468   1.1590   0.000000  -1.1709
  5.1000     9.6315   0.096832   1.0054   0.024678  -0.5630
  5.1200     9.4967   0.055451   0.5839   0.028349   0.8989
  5.1400    11.6583   0.073364   0.6293   0.000000   0.2313
  5.1600    11.4961   0.129633   1.1276   0.046745  -1.0508
  5.1800     9.4548   0.097094   1.0269   0.072126  -0.5153
  5.2000     9.8238   0.096052   0.9778   0.000000  -0.5945
  5.2200    12.2134   0.167335   1.3701   0.002627   0.7014
  5.2400    11.3169   0.097519   0.8617   0.082179  -0.6453
  5.2600    10.5639   0.097487   0.9228   0.032617   0.4971
  5.2800     9.8247   0.088002   0.8957   0.000000  -0.1092
  5.3000    15.8142   0.132294   0.8366   0.011733   0.5590
  5.3200     9.4592   0.095402   1.0086   0.087443  -1.1365
  5.3400    15.2454   0.145992   0.9576   0.024848   1.0127
  5.3600    14.5622   0.134474   0.9234   0.100142  -0.5171
  5.3800    13.8945   0.127249   0.9158   0.066963   0.6602
  5.4000     9.9495   0.050403   0.5066   0.065922   1.2419
  5.4200    14.9436   0.217917   1.4583   0.067334   0.5667
  5.4400    15.4737   0.165216   1.0677   0.000000  -0.6315
  5.4600     9.7117   0.085112   0.8764   0.159386   0.5850
  5.4800    13.1446   0.094755   0.7209   0.000000   1.3545
  5.5000    11.4122   0.117722   1.0315   0.051120  -0.9847
  5.5200    10.1545   0.098479   0.9698   0.042731   1.3189
  5.5400    12.8088   0.168539   1.3158   0.158999  -1.0962
  5.5600    16.2777   0.226523   1.3916   0.026964  -1.1538
  5.5800    13.9968   0.107960   0.7713   0.052295   0.6682
  5.6000    14.9592   0.170128   1.1373   0.114145   0.0545
  5.6200    12.0909   0.123064   1.0178   0.035343   0.2028
  5.6400    13.5720   0.176195   1.2982   0.000000   1.1451
  5.6600     9.6021   0.049120   0.5116   0.066230   0.5472
  5.6800    15.4613   0.088173   0.5703   0.141417  -1.1971
  5.7000     9.5993   0.093635   0.9754   0.100157  -0.2884
  5.7200    14.3798   0.101889   0.7086   0.114554   0.5902
  5.7400    14.9292   0.102667   0.6877   0.003036  -0.1177
  5.7600    10.1139   0.060596   0.5991   0.064078  -0.7919
  5.7800    15.3711   0.141579   0.9211   0.017551   0.9540
  5.8000    15.9888   0.137601   0.8606   0.000000  -1.0884
  5.8200     9.8857   0.123009   1.2443   0.152570  -0.9937
  5.8400    12.0519   0.072039   0.5977   0.000000  -0.9045
  5.8600    14.2351   0.181232   1.2731   0.000000  -0.3380
  5.8800    10.3308   0.098598   0.9544   0.048200  -0.1835
  5.9000    11.5396   0.077432   0.6710   0.136306   0.0176
  5.9200    16.3540   0.171436   1.0483   0.006361  -0.6665
  5.9400    10.9960   0.143399   1.3041   0.000995   0.8465
  5.9600    10.7929   0.105301   0.9756   0.083506  -1.1422
  5.9800    11.6824   0.084071   0.7196   0.095078   0.8908
  6.0000    11.0475   0.097871   0.8859   0.113920  -0.7357
  6.0200    15.2116   0.155793   1.0242   0.022138  -1.1725
  6.0400    13.6095   0.134994   0.9919   0.049112  -0.6437
  6.0600    12.4579   0.113239   0.9090   0.010976   0.9340
  6.0800    15.8291   0.109722   0.6932   0.065491   0.4925
  6.1000    13.6113   0.101171   0.7433   0.103578  -0.0802
  6.1200    13.5199   0.186089   1.3764   0.103663  -1.3198
  6.1400    12.5265   0.071715   0.5725   0.051334  -0.6169
  6.1600    11.8433   0.124741   1.0533   0.070480  -0.1733
  6.1800    14.2684   0.094093   0.6595   0.015335   1.1347
  6.2000    10.5078   0.099309   0.9451   0.101441   0.2654
  6.2200    14.2970   0.178038   1.2453   0.144607  -0.0787
  6.2400    10.7767   0.110346   1.0239   0.048510   0.3633
  6.2600    14.5476   0.209340   1.4390   0.039805   0.4593
  6.2800    13.7423   0.141444   1.0293   0.020272  -0.4919
  6.3000    11.9673   0.143787   1.2015   0.000000   0.6681
  6.3200    10.1680   0.151180   1.4868   0.124802   0.2661
  6.3400    11.8246   0.072069   0.6095   0.029015   1.3135
  6.3600     9.8853   0.065253   0.6601   0.012421  -0.0652
  6.3800    11.9663   0.168060   1.4044   0.086224   0.5665
  6.4000    15.4821   0.153509   0.9915   0.046357  -0.3985
  6.4200    11.3493   0.099507   0.8768   0.107499  -0.6195
  6.4400    12.7158   0.090918   0.7150   0.000000   0.2566
  6.4600    16.3360   0.182449   1.1169   0.006522  -0.3065
  6.4800    13.9918   0.093702   0.6697   0.038108   1.4994
  6.5000    14.8898   0.108039   0.7256   0.071993  -0.5420
  6.5200    14.6555   0.165442   1.1289   0.000000  -0.4454
  6.5400    14.2732   0.075864   0.5315   0.041959  -0.7959
  6.5600    13.3127   0.122433   0.9197   0.032806   0.5328
  6.5800    15.6337   0.184755   1.1818   0.089014   0.7302
  6.6000    10.1375   0.092792   0.9153   0.026007   0.4725
  6.6200    10.5547   0.055808   0.5287   0.077076  -0.1503
  6.6400    11.1337   0.085120   0.7645   0.128234   0.7598
  6.6600    10.9809   0.066013   0.6012   0.048217   1.4433
  6.6800    12.4899   0.108797   0.8711   0.129159   1.3288
  6.7000    10.6102   0.095101   0.8963   0.152931   1.2163
  6.7200    16.1399   0.214066   1.3263   0.063340   0.9142
  6.7400    16.2988   0.085821   0.5265   0.129458   1.2259
  6.7600    12.6233   0.150997   1.1962   0.052284  -0.9644
  6.7800    11.5597   0.170947   1.4788   0.039470   0.9887
  6.8000    11.6253   0.170957   1.4706   0.026969  -0.5395
  6.8200    16.2720   0.124295   0.7639   0.089571   0.3029
  6.8400    16.1844   0.092242   0.5699   0.101542  -0.7915
  6.8600    13.9730   0.095571   0.6840   0.025596   0.0786
  6.8800    12.7596   0.083576   0.6550   0.116562   0.6550
  6.9000    11.6151   0.152697   1.3146   0.071445  -0.6387
  6.9200    11.3053   0.166723   1.4747   0.000000  -0.4924
  6.9400    12.9009   0.146612   1.1365   0.131659   1.3712
  6.9600    10.6084   0.096730   0.9118   0.047921  -1.0216
  6.9800    14.4402   0.192460   1.3328   0.072461  -1.4440
  7.0000     9.9653   0.133101   1.3356   0.144560  -1.0976
  7.0200    12.1009   0.116689   0.9643   0.073647  -0.9087
  7.0400    10.6413   0.138727   1.3037   0.031443   0.3014
  7.0600    14.0799   0.193049   1.3711   0.058386   0.6305
  7.0800    13.7145   0.128260   0.9352   0.054374  -1.2604
  7.1000    16.6848   0.090781   0.5441   0.091065  -1.3274
  7.1200    16.8126   0.183949   1.0941   0.149287  -1.4574
  7.1400    11.4058   0.120707   1.0583   0.108972   1.0657
  7.1600    11.4907   0.057588   0.5012   0.017838   0.4237
  7.1800    13.6181   0.136118   0.9995   0.034920  -0.0608
  7.2000    13.8683   0.160044   1.1540   0.091520   1.0784
  7.2200    16.2431   0.199277   1.2268   0.111471  -0.4966
  7.2400    12.2993   0.161755   1.3152   0.002760   0.6081
  7.2600    12.0615   0.078371   0.6498   0.012190   1.3911
  7.2800    16.3630   0.150894   0.9222   0.098825   0.9343
  7.3000    13.9480   0.177342   1.2714   0.142504  -0.1179
  7.3200    12.4659   0.168547   1.3521   0.198965   0.3033
  7.3400    12.5651   0.108810   0.8660   0.071281  -0.4194
  7.3600    15.1377   0.081127   0.5359   0.135905  -0.3049
  7.3800    13.6680   0.152299   1.1143   0.008178   1.3896
  7.4000    12.2744   0.069560   0.5667   0.082376   0.7517
  7.4200    12.6036   0.171768   1.3628   0.092161  -1.1829
  7.4400    11.2289   0.117190   1.0436   0.050743   0.7833
  7.4600    14.0269   0.098219   0.7002   0.029344  -1.2605
  7.4800    14.0702   0.162838   1.1573   0.076254   0.2970
  7.5000    12.6748   0.082334   0.6496   0.008231   1.2858
  7.5200    11.2319   0.065142   0.5800   0.057890  -0.1878
  7.5400    11.3109   0.087818   0.7764   0.107067  -1.1657
  7.5600    15.0361   0.110635   0.7358   0.107324  -1.0816
  7.5800    16.6322   0.188731   1.1347   0.048738  -0.3222
  7.6000    14.7221   0.174260   1.1837   0.053444  -1.4700
  7.6200    13.4313   0.101302   0.7542   0.095412   0.3302
  7.6400    15.1411   0.081530   0.5385   0.062792   0.5012
  7.6600    11.7279   0.153286   1.3070   0.118402   0.3875
  7.6800    10.5507   0.115389   1.0937   0.065408   1.1685
  7.7000    15.0820   0.172406   1.1431   0.114553  -0.8339
  7.7200    11.5792   0.172016   1.4856   0.131919   1.2883
  7.7400    12.0540   0.106469   0.8833   0.126520  -0.2429
  7.7600    11.3097   0.068698   0.6074   0.123948   0.8331
  7.7800    12.1441   0.092547   0.7621   0.071898   1.4589
  7.8000    12.2580   0.142062   1.1589   0.074509   1.4531
  7.8200    13.5939   0.129162   0.9501   0.020522  -0.4285
  7.8400    17.0206   0.121877   0.7161   0.059654   1.0945
  7.8600    12.6475   0.172512   1.3640   0.104464  -0.4727
  7.8800    14.7044   0.156902   1.0670   0.172044  -0.7242
  7.9000    16.0646   0.237722   1.4798   0.000000  -0.6200
  7.9200    16.6715   0.158724   0.9521   0.069896   0.8206
  7.9400    11.6862   0.122085   1.0447   0.078450   1.3121
  7.9600    12.9172   0.148443   1.1492   0.153658   0.0854
  7.9800    14.8555   0.171624   1.1553   0.030398   0.7603
  8.0000     4.3747   0.222010   5.0749   0.064488  -1.2399
  8.0200     3.9680   0.171596   4.3245   0.102939  -1.1541
  8.0400     3.7581   0.143535   3.8193   0.067164  -0.9003
  8.0600     5.2855   0.247370   4.6802   0.093619   1.0473
  8.0800     3.6350   0.198396   5.4580   0.054680  -1.1675
  8.1000     4.8143   0.229566   4.7684   0.081471   0.4113
  8.1200     3.4396   0.205107   5.9631   0.111985  -0.4844
  8.1400     5.6402   0.323696   5.7391   0.121451   0.0618
  8.1600     5.4277   0.267209   4.9231   0.112211   0.2408
  8.1800     3.9088   0.184599   4.7226   0.111218  -0.6942
  8.2000     5.3138   0.235069   4.4237   0.088091  -0.1434
  8.2200     3.9502   0.203556   5.1530   0.113203   0.4914
  8.2400     4.3744   0.237113   5.4205   0.052235   1.2595
  8.2600     4.1486   0.206850   4.9860   0.106973  -0.4008
  8.2800     3.6218   0.170455   4.7064   0.040262   1.1052
  8.3000     5.1793   0.226308   4.3695   0.068147  -0.1019
  8.3200     3.7399   0.197127   5.2709   0.122369  -0.1128
  8.3400     3.7279   0.180678   4.8466   0.078823   1.3402
  8.3600     6.0349   0.257590   4.2684   0.078495  -1.4113
  8.3800     4.4611   0.265614   5.9541   0.073706  -0.5013
  8.4000     5.8757   0.279878   4.7633   0.117889  -1.1741
  8.4200     3.0692   0.176814   5.7610   0.123898   0.9689
  8.4400     4.2646   0.194764   4.5670   0.115015   0.3940
  8.4600     5.6090   0.309575   5.5193   0.088257  -1.2820
  8.4800     3.7378   0.179417   4.8000   0.039532  -0.9930
  8.5000     3.6454   0.170559   4.6787   0.079113   0.9767
  8.5200     5.9184   0.280595   4.7411   0.058237   1.2659
  8.5400     5.9073   0.327677   5.5469   0.108498  -1.4598
  8.5600     4.7533   0.270580   5.6925   0.100139   0.6639
  8.5800     6.1638   0.345934   5.6123   0.099103  -0.2766
  8.6000     5.4066   0.289801   5.3602   0.074076   0.5482
  8.6200     3.3406   0.199982   5.9865   0.088772  -1.3461
  8.6400     4.4726   0.232927   5.2079   0.093685   0.1748
  8.6600     3.5835   0.153960   4.2964   0.072344  -0.6300
  8.6800     3.4980   0.162527   4.6463   0.079668   0.0007
  8.7000     3.2946   0.151416   4.5958   0.060907  -1.0051
  8.7200     5.4909   0.286069   5.2099   0.122467  -1.2415
  8.7400     4.2884   0.220221   5.1352   0.067807  -0.2521
  8.7600     3.6363   0.154499   4.2489   0.132079  -0.7940
  8.7800     5.5204   0.271008   4.9092   0.104583  -0.0386
  8.8000     5.8767   0.313181   5.3292   0.115426  -0.0024
  8.8200     4.1721   0.220428   5.2834   0.115716  -1.3148
  8.8400     5.3847   0.288600   5.3596   0.112498  -0.0793
  8.8600     5.2532   0.259983   4.9491   0.054552   0.6365
  8.8800     4.9466   0.273148   5.5220   0.086147   0.1773
  8.9000     5.7810   0.274560   4.7494   0.074419   0.2784
  8.9200     4.6141   0.226143   4.9011   0.082604   0.7036
  8.9400     4.4983   0.206063   4.5809   0.061598  -1.4243
  8.9600     4.7914   0.266890   5.5701   0.061970  -1.0591
  8.9800     6.1472   0.279423   4.5455   0.037928  -0.5587
  9.0000     5.6091   0.323004   5.7585   0.070871  -0.9268
  9.0200     4.7157   0.189337   4.0151   0.140914   0.0332
  9.0400     5.7752   0.237378   4.1103   0.063080   0.8661
  9.0600     5.7886   0.310512   5.3642   0.104436   0.7915
  9.0800     4.1420   0.219268   5.2937   0.086031  -0.5649
  9.1000     5.5323   0.325853   5.8900   0.136881  -0.4896
  9.1200     5.2531   0.258957   4.9296   0.078721  -0.5758
  9.1400     4.7844   0.239809   5.0123   0.048613   0.4205
  9.1600     5.0579   0.209235   4.1368   0.045263   0.7104
  9.1800     4.8771   0.240086   4.9228   0.077413   0.7418
  9.2000     4.4434   0.216008   4.8613   0.019033  -0.8194
  9.2200     4.9642   0.208473   4.1995   0.083644   0.1139
  9.2400     5.0926   0.246305   4.8366   0.054948  -0.3702
  9.2600     3.6136   0.190332   5.2670   0.121626  -0.8960
  9.2800     4.5157   0.232621   5.1514   0.115286   1.2291
  9.3000     5.4852   0.293233   5.3459   0.138568  -0.5845
  9.3200     5.0854   0.220908   4.3440   0.115925   1.2896
  9.3400     4.3971   0.195674   4.4501   0.076418  -1.1552
  9.3600     4.0560   0.175738   4.3328   0.110096   0.9638
  9.3800     6.1537   0.323837   5.2625   0.078379  -1.2366
  9.4000     3.6974   0.188743   5.1048   0.091707   0.6489
  9.4200     4.5695   0.186704   4.0858   0.114389  -0.0237
  9.4400     5.4616   0.281827   5.1602   0.158859  -0.6488
  9.4600     3.4110   0.198672   5.8245   0.133842   0.2228
  9.4800     3.8603   0.164923   4.2723   0.070695  -0.7261
  9.5000     5.9390   0.268346   4.5184   0.141867   0.7443
  9.5200     5.9109   0.303881   5.1410   0.110378   0.1747
  9.5400     3.6911   0.166802   4.5191   0.094128  -1.1070
  9.5600     4.1558   0.226568   5.4518   0.086495   0.1794
  9.5800     3.7154   0.157991   4.2523   0.074230  -0.1745
  9.6000     6.1865   0.300970   4.8649   0.154827   0.0924
  9.6200     4.1173   0.170079   4.1308   0.157558   1.4637
  9.6400     3.7006   0.199085   5.3798   0.068609   0.6604
  9.6600     3.7623   0.197781   5.2569   0.118824  -0.5288
  9.6800     3.3160   0.187949   5.6680   0.104359   0.5933
  9.7000     3.6188   0.159009   4.3940   0.099702   0.2632
  9.7200     3.6360   0.215933   5.9387   0.071109  -1.0968
  9.7400     4.9293   0.217443   4.4112   0.112265   0.3336
  9.7600     6.0227   0.292603   4.8583   0.027258  -0.3681
  9.7800     5.5051   0.269426   4.8941   0.103238   0.3146
  9.8000     4.1785   0.201365   4.8190   0.098286   1.3781
  9.8200     3.5342   0.177442   5.0207   0.109766   0.2515
  9.8400     5.5814   0.287060   5.1432   0.133556  -0.5070
  9.8600     5.6274   0.279193   4.9613   0.145024  -0.3400
  9.8800     3.5903   0.190438   5.3043   0.050815   0.9161
  9.9000     3.5202   0.156513   4.4462   0.128317  -0.1508
  9.9200     5.6746   0.241627   4.2580   0.147303  -0.2845
  9.9400     4.6122   0.235041   5.0960   0.095820  -0.4661
  9.9600     3.4112   0.162832   4.7734   0.132847  -1.1598
  9.9800     6.1318   0.266585   4.3476   0.076120   0.5610
 10.0000     6.3629   0.287264   4.5147   0.056354   1.1258
 10.0200     3.8221   0.187639   4.9093   0.127594   1.3195
 10.0400     5.7438   0.318930   5.5526   0.093739  -1.2075
 10.0600     3.9201   0.162127   4.1358   0.134698  -1.0935
 10.0800     4.1424   0.172772   4.1708   0.088032   0.6655
 10.1000     5.6623   0.262415   4.6344   0.063938   1.0838
 10.1200     5.3756   0.234895   4.3697   0.053463  -0.8534
 10.1400     4.5857   0.232275   5.0652   0.156711  -0.2098
 10.1600     5.0703   0.252296   4.9760   0.063883  -0.5228
 10.1800     4.3592   0.185968   4.2661   0.081230   0.5614
 10.2000     5.8537   0.239067   4.0841   0.067383   1.4483
 10.2200     3.4265   0.153912   4.4919   0.084406   0.4061
 10.2400     6.2451   0.261066   4.1803   0.100166   0.9480
 10.2600     5.2339   0.237181   4.5316   0.043324  -0.7379
 10.2800     4.9662   0.272148   5.4800   0.107116   0.7203
 10.3000     5.8144   0.305614   5.2562   0.053008  -0.9074
 10.3200     5.8737   0.331972   5.6518   0.052812  -0.3886
 10.3400     5.1633   0.242687   4.7002   0.077869  -0.8428
 10.3600     4.4049   0.198636   4.5094   0.054492  -0.2864
 10.3800     4.9406   0.264633   5.3562   0.050965   0.6049
 10.4000     6.5082   0.266334   4.0923   0.102251  -0.2664
 10.4200     3.6479   0.194023   5.3188   0.165303  -0.3809
 10.4400     5.0156   0.262552   5.2347   0.091052   1.4208
 10.4600     5.6154   0.328659   5.8528   0.084537  -0.5182
 10.4800     4.6333   0.205207   4.4290   0.108851   0.7569
 10.5000     4.0007   0.160216   4.0047   0.079677   0.1712
 10.5200     4.6633   0.185736   3.9829   0.116918  -0.6870
 10.5400     5.9405   0.337586   5.6828   0.104495   0.4758
 10.5600     3.8205   0.158026   4.1363   0.121433  -0.8719
 10.5800     5.3816   0.311602   5.7901   0.074790  -0.8183
 10.6000     5.8729   0.325432   5.5412   0.129552  -0.7117
 10.6200     6.4267   0.346334   5.3890   0.160843  -0.2052
 10.6400     6.0464   0.247519   4.0937   0.130383  -0.6675
 10.6600     5.8717   0.243737   4.1510   0.116040  -1.3051
 10.6800     5.2827   0.323325   6.1205   0.045012  -1.1459
 10.7000     5.2730   0.231630   4.3927   0.140297  -1.4726
 10.7200     5.6858   0.319777   5.6241   0.116644   1.1589
 10.7400     4.4091   0.185243   4.2014   0.112576  -1.0798
 10.7600     4.0343   0.199574   4.9469   0.186659   0.2966
 10.7800     3.8836   0.177801   4.5783   0.100872  -1.3170
 10.8000     3.7023   0.178472   4.8206   0.090126   0.8442
 10.8200     5.7218   0.291325   5.0915   0.089610   0.2410
 10.8400     4.2678   0.209926   4.9188   0.129101  -1.3830
 10.8600     5.1802   0.226757   4.3774   0.102549   0.9115
 10.8800     6.4117   0.296857   4.6299   0.102069  -0.1440
 10.9000     5.2843   0.237557   4.4955   0.076120  -1.2778
 10.9200     4.8472   0.203605   4.2004   0.101623  -1.1703
 10.9400     4.8397   0.214571   4.4335   0.078164   1.3731
 10.9600     5.7375   0.269358   4.6947   0.110081  -0.3597
 10.9800     3.4604   0.168515   4.8698   0.117363   1.0307
 11.0000     5.9367   0.276409   4.6559   0.081893   0.7021
 11.0200     5.1585   0.230338   4.4652   0.115207   0.0405
 11.0400     4.6519   0.254724   5.4757   0.135759  -1.4552
 11.0600     5.7646   0.317657   5.5105   0.063247   0.8613
 11.0800     6.5265   0.324342   4.9696   0.101209  -0.4006
 11.1000     6.1543   0.262701   4.2686   0.079577  -1.4794
 11.1200     3.8742   0.195075   5.0352   0.102198  -0.9444
 11.1400     4.3101   0.214673   4.9808   0.142999   1.0212
 11.1600     4.8086   0.219518   4.5651   0.124236   0.5283
 11.1800     6.4910   0.293057   4.5148   0.146476  -1.1705
 11.2000     6.1322   0.334956   5.4623   0.086375  -0.9257
 11.2200     6.0837   0.249266   4.0973   0.106480   0.8619
 11.2400     3.9172   0.175747   4.4865   0.113892  -0.7739
 11.2600     6.4418   0.271958   4.2218   0.087465  -1.0027
 11.2800     3.8036   0.229332   6.0293   0.136348  -0.8902
 11.3000     5.1874   0.219971   4.2405   0.113160  -0.0121
 11.3200     4.3077   0.187981   4.3638   0.157782  -0.0384
 11.3400     6.2274   0.340447   5.4669   0.091045   0.2569
 11.3600     6.0730   0.329247   5.4215   0.051373   0.1482
 11.3800     5.7795   0.338754   5.8613   0.055369   0.6807
 11.4000     5.2676   0.275407   5.2283   0.094766  -1.2783
 11.4200     6.7038   0.360424   5.3764   0.089775  -1.1691
 11.4400     4.7146   0.254168   5.3910   0.098227   1.3914
 11.4600     6.1934   0.346652   5.5971   0.143327  -1.2256
 11.4800     4.0627   0.230965   5.6850   0.172495  -0.1281
 11.5000     5.9525   0.341977   5.7451   0.153701   0.1889
 11.5200     3.6766   0.164757   4.4813   0.162388  -0.4493
 11.5400     6.6339   0.299149   4.5094   0.118337  -1.4967
 11.5600     5.3230   0.285736   5.3680   0.137890   0.8964
 11.5800     6.5429   0.306282   4.6812   0.182064   0.0241
 11.6000     5.9282   0.316461   5.3382   0.166811  -1.1074
 11.6200     4.5856   0.181684   3.9621   0.095388   0.0068
 11.6400     6.4409   0.270819   4.2046   0.115250   0.6776
 11.6600     4.0796   0.243223   5.9620   0.111111   0.4465
 11.6800     5.9166   0.248169   4.1945   0.057108  -1.0068
 11.7000     4.7713   0.211667   4.4362   0.089693  -0.4449
 11.7200     4.8004   0.273896   5.7057   0.131507  -0.2329
 11.7400     4.4603   0.259961   5.8283   0.098296   0.2009
 11.7600     5.0915   0.231063   4.5382   0.123518  -1.1780
 11.7800     4.8283   0.273665   5.6680   0.083616   1.1196
 11.8000     6.4037   0.353274   5.5167   0.141663  -0.6326
 11.8200     4.3683   0.227132   5.1995   0.084779   1.3011
 11.8400     5.9508   0.350274   5.8862   0.131100   0.5878
 11.8600     4.0419   0.196128   4.8524   0.109701  -0.5372
 11.8800     4.5380   0.258100   5.6876   0.102378  -0.9977
 11.9000     4.8663   0.278473   5.7224   0.118604  -0.4580
 11.9200     4.4049   0.255666   5.8041   0.075441  -0.5432
 11.9400     5.0089   0.221297   4.4181   0.148421  -0.5566
 11.9600     6.2308   0.297507   4.7748   0.168601  -0.6562
 11.9800     6.7867   0.369778   5.4486   0.154302  -0.4681
 12.0000    28.5018   0.364298   1.2782   0.020407   0.4819
 12.0200    16.0955   0.270037   1.6777   0.119639  -0.6310
 12.0400    26.7894   0.448128   1.6728   0.079683   0.1338
 12.0600    15.3283   0.171849   1.1211   0.123616   0.6661
 12.0800    15.5763   0.247500   1.5890   0.103551  -0.8722
 12.1000    18.4453   0.181197   0.9823   0.049183   0.8373
 12.1200    21.6832   0.292014   1.3467   0.103464  -0.7563
 12.1400    18.6953   0.263906   1.4116   0.229670   0.8913
 12.1600    23.5615   0.317731   1.3485   0.101421  -0.0526
 12.1800    27.9406   0.301238   1.0781   0.163432  -1.3535
 12.2000    17.7420   0.168093   0.9474   0.110177  -1.4802
 12.2200    25.7890   0.251453   0.9750   0.041389   0.1675
 12.2400    26.5575   0.372392   1.4022   0.140472   0.3876
 12.2600    22.4325   0.318273   1.4188   0.141120   1.4604
 12.2800    28.5152   0.399441   1.4008   0.188935   0.5670
 12.3000    24.8199   0.391098   1.5757   0.134963  -0.8854
 12.3200    20.3556   0.177309   0.8711   0.073804   0.2513
 12.3400    15.5092   0.196810   1.2690   0.149094   0.2671
 12.3600    29.7893   0.456952   1.5339   0.158819   1.1907
 12.3800    20.5628   0.232725   1.1318   0.019815   0.9924
 12.4000    19.1519   0.302113   1.5775   0.116229   1.4564
 12.4200    16.6778   0.262198   1.5721   0.120397   1.1076
 12.4400    25.6644   0.241662   0.9416   0.101371  -0.5106
 12.4600    25.3627   0.224122   0.8837   0.127950   0.0540
 12.4800    24.2929   0.317916   1.3087   0.104858   1.1283
 12.5000    23.1545   0.292438   1.2630   0.105998  -0.0056
 12.5200    24.8406   0.404260   1.6274   0.166613   0.4017
 12.5400    30.0633   0.380576   1.2659   0.224421   0.5539
 12.5600    26.7743   0.320455   1.1969   0.013726   0.4559
 12.5800    15.3000   0.221391   1.4470   0.174784  -0.8642
 12.6000    16.0508   0.256566   1.5985   0.103826  -0.4556
 12.6200    20.5192   0.363438   1.7712   0.222270  -0.2639
 12.6400    28.2306   0.422447   1.4964   0.078924   0.5379
 12.6600    18.5009   0.176652   0.9548   0.093197   0.1056
 12.6800    23.5675   0.246537   1.0461   0.202452   1.3406
 12.7000    24.6134   0.341469   1.3873   0.182498   0.9087
 12.7200    22.5399   0.310613   1.3781   0.204634  -0.3024
 12.7400    19.6702   0.252406   1.2832   0.159913   0.1149
 12.7600    24.0212   0.404910   1.6856   0.123808  -0.2456
 12.7800    24.6164   0.291025   1.1822   0.007913  -0.5864
 12.8000    18.7900   0.222269   1.1829   0.043630  -0.6025
 12.8200    16.1413   0.163960   1.0158   0.140777  -0.5932
 12.8400    19.8623   0.199172   1.0028   0.229873  -0.8494
 12.8600    21.7172   0.247416   1.1393   0.138099   0.2924
 12.8800    20.7401   0.222196   1.0713   0.056005  -0.6713
 12.9000    25.5802   0.441216   1.7248   0.143810   0.9787
 12.9200    27.0766   0.244427   0.9027   0.064694   0.8726
 12.9400    23.1222   0.219423   0.9490   0.158148   0.3057
 12.9600    21.0311   0.263399   1.2524   0.216362   0.0082
 12.9800    28.2357   0.469431   1.6625   0.091240  -1.0923
 13.0000    19.8503   0.207866   1.0472   0.146870  -0.1873
 13.0200    29.6110   0.272732   0.9210   0.162429   0.3181
 13.0400    27.2981   0.290337   1.0636   0.190412  -0.9147
 13.0600    27.3200   0.451254   1.6517   0.155448  -1.3360
 13.0800    22.9649   0.364514   1.5873   0.072432  -0.3811
 13.1000    24.6866   0.371132   1.5034   0.145899  -1.4353
 13.1200    28.3022   0.349516   1.2349   0.162611  -0.6570
 13.1400    19.4190   0.271211   1.3966   0.135040   0.6021
 13.1600    18.6003   0.265003   1.4247   0.205380   0.0947
 13.1800    20.8858   0.317589   1.5206   0.092610   0.5819
 13.2000    19.0068   0.195363   1.0279   0.202447   0.7900
 13.2200    19.5160   0.343527   1.7602   0.140235  -0.4986
 13.2400    18.0257   0.193005   1.0707   0.181972  -0.9456
 13.2600    24.1883   0.418586   1.7305   0.061075   0.3468
 13.2800    21.2099   0.361016   1.7021   0.183474  -0.4893
 13.3000    26.2117   0.299318   1.1419   0.094366   0.8744
 13.3200    27.0797   0.382990   1.4143   0.151873   0.0820
 13.3400    22.7785   0.249843   1.0968   0.111819   0.9051
 13.3600    24.2962   0.435553   1.7927   0.142696   0.6143
 13.3800    19.6693   0.238904   1.2146   0.085220   0.1178
 13.4000    28.8440   0.433025   1.5013   0.134063   0.7004
 13.4200    26.6300   0.282515   1.0609   0.201871  -0.4263
 13.4400    29.3391   0.514515   1.7537   0.172859   1.0469
 13.4600    18.9777   0.259199   1.3658   0.064950  -1.2139
 13.4800    24.7270   0.307366   1.2430   0.124228  -1.2816
 13.5000    19.3224   0.314389   1.6271   0.106451   0.5415
 13.5200    29.5944   0.486267   1.6431   0.124026   0.4368
 13.5400    24.9104   0.431617   1.7327   0.145626  -0.2389
 13.5600    29.5982   0.478159   1.6155   0.088391   0.3914
 13.5800    24.2829   0.431190   1.7757   0.049548   1.4006
 13.6000    26.8598   0.306611   1.1415   0.044985   1.4469
 13.6200    25.4677   0.216359   0.8495   0.086118  -0.9588
 13.6400    16.8436   0.292953   1.7393   0.219831   1.4468
 13.6600    17.1402   0.179013   1.0444   0.140768  -0.9491
 13.6800    29.3402   0.425348   1.4497   0.172789  -0.1248
 13.7000    30.2930   0.335953   1.1090   0.185255  -0.5701
 13.7200    25.7343   0.283601   1.1020   0.157509  -0.6715
 13.7400    31.3090   0.463991   1.4820   0.136621  -1.0201
 13.7600    22.9319   0.290643   1.2674   0.102295   0.7469
 13.7800    29.4979   0.256359   0.8691   0.040324  -0.5098
 13.8000    29.6471   0.335700   1.1323   0.131630   0.1098
 13.8200    30.8083   0.542449   1.7607   0.119441  -1.1171
 13.8400    31.1206   0.357242   1.1479   0.119485   1.3811
 13.8600    16.8521   0.246080   1.4602   0.112076  -0.8642
 13.8800    27.1483   0.360011   1.3261   0.145755   1.1021
 13.9000    26.2208   0.385313   1.4695   0.126994   1.2697
 13.9200    31.0910   0.339867   1.0931   0.129554   0.8738
 13.9400    28.7577   0.491388   1.7087   0.175796   0.5162
 13.9600    18.4539   0.313628   1.6995   0.098839  -0.0581
 13.9800    27.4106   0.244147   0.8907   0.225196  -0.2105
 14.0000    18.7069   0.198218   1.0596   0.234939  -1.0908
 14.0200    30.3336   0.447023   1.4737   0.160968   0.3192
 14.0400    21.1745   0.254241   1.2007   0.062336   0.6987
 14.0600    21.5963   0.349438   1.6180   0.169364   0.6012
 14.0800    18.6330   0.249644   1.3398   0.121356  -0.8032
 14.1000    23.3261   0.416756   1.7867   0.070588  -0.1548
 14.1200    22.3658   0.321455   1.4373   0.080248   0.7007
 14.1400    21.2881   0.280877   1.3194   0.246023  -1.4048
 14.1600    20.4343   0.175111   0.8569   0.104238  -0.9140
 14.1800    18.7759   0.211754   1.1278   0.189619   0.9281
 14.2000    18.5162   0.257927   1.3930   0.214274   1.1445
 14.2200    23.7557   0.278854   1.1738   0.179352   1.3921
 14.2400    31.2775   0.282415   0.9029   0.144613  -1.1694
 14.2600    24.6907   0.419308   1.6982   0.133485   1.4372
 14.2800    27.8919   0.457347   1.6397   0.197867   0.6355
 14.3000    26.7898   0.430764   1.6079   0.116184   0.9865
 14.3200    24.2855   0.388020   1.5977   0.140179  -0.0461
 14.3400    25.0211   0.434109   1.7350   0.092229   0.1756
 14.3600    21.5124   0.343186   1.5953   0.128791   0.5553
 14.3800    29.9537   0.434756   1.4514   0.114932  -1.2546
 14.4000    21.7110   0.326239   1.5026   0.099098   0.8530
 14.4200    25.9105   0.259117   1.0000   0.091672   1.1918
 14.4400    28.6923   0.478716   1.6684   0.120633  -0.1001
 14.4600    26.3681   0.309284   1.1729   0.231767  -0.3353
 14.4800    29.6187   0.379235   1.2804   0.184583   0.1204
 14.5000    17.7095   0.226300   1.2778   0.162537  -1.1663
 14.5200    29.3154   0.425889   1.4528   0.295012  -0.7294
 14.5400    28.6212   0.380315   1.3288   0.170413  -0.8357
 14.5600    24.5376   0.242840   0.9897   0.059192  -0.1253
 14.5800    18.6132   0.221278   1.1888   0.047006  -1.2649
 14.6000    32.0927   0.351788   1.0962   0.174038   0.4715
 14.6200    20.4408   0.363648   1.7790   0.190975   0.5655
 14.6400    17.5930   0.201538   1.1456   0.128305  -0.6801
 14.6600    21.6265   0.278218   1.2865   0.134579   1.2181
 14.6800    22.0195   0.193587   0.8792   0.101257  -0.1453
 14.7000    30.7137   0.458090   1.4915   0.181831  -0.2131
 14.7200    25.7689   0.354847   1.3770   0.185299  -1.1777
 14.7400    28.4017   0.305144   1.0744   0.135605   1.1428
 14.7600    19.2415   0.247369   1.2856   0.140515   0.3672
 14.7800    24.1584   0.399959   1.6556   0.160198  -0.7922
 14.8000    29.3407   0.440038   1.4998   0.182448   0.4757
 14.8200    19.9534   0.160872   0.8062   0.320818   0.1424
 14.8400    20.5798   0.236784   1.1506   0.125577  -1.2751
 14.8600    25.2632   0.273994   1.0846   0.166378  -1.2099
 14.8800    20.0659   0.183973   0.9168   0.166233   1.4805
 14.9000    25.7365   0.361232   1.4036   0.189595  -1.0566
 14.9200    32.1043   0.328761   1.0240   0.078804  -0.7043
 14.9400    30.7223   0.276191   0.8990   0.156064   1.1225
 14.9600    31.8389   0.564604   1.7733   0.183686  -0.9387
 14.9800    25.2984   0.304522   1.2037   0.090849   0.0074
 15.0000    20.2674   0.227054   1.1203   0.149112  -1.0736
 15.0200    28.5049   0.242965   0.8524   0.079489  -0.5867
 15.0400    19.1023   0.225250   1.1792   0.129458   0.1305
 15.0600    30.7472   0.303723   0.9878   0.097811   1.2860
 15.0800    29.1020   0.393302   1.3515   0.184400   1.2528
 15.1000    25.2549   0.455208   1.8025   0.065203   1.0410
 15.1200    23.0669   0.315764   1.3689   0.250404   0.6091
 15.1400    19.4098   0.277786   1.4312   0.117251   1.1059
 15.1600    23.4511   0.249626   1.0645   0.206876   1.1508
 15.1800    29.1443   0.350497   1.2026   0.134711  -0.8147
 15.2000    18.6154   0.295623   1.5881   0.260138   0.0198
 15.2200    20.2909   0.278901   1.3745   0.250876  -0.6622
 15.2400    22.6242   0.205082   0.9065   0.220518   0.2851
 15.2600    24.0498   0.284202   1.1817   0.251680   0.9781
 15.2800    24.5196   0.346824   1.4145   0.061570  -0.4638
 15.3000    25.3346   0.221827   0.8756   0.172241  -0.2684
 15.3200    25.1484   0.205413   0.8168   0.131966   1.0961
 15.3400    29.0527   0.345173   1.1881   0.116436   0.0870
 15.3600    30.5782   0.278988   0.9124   0.260223  -0.4655
 15.3800    26.8532   0.372507   1.3872   0.182118  -1.2318
 15.4000    25.2953   0.241659   0.9553   0.033106   0.6598
 15.4200    25.9040   0.288953   1.1155   0.104405   0.3286
 15.4400    31.7260   0.311646   0.9823   0.069617   0.1404
 15.4600    24.6777   0.306172   1.2407   0.199773  -1.0652
 15.4800    27.4272   0.435652   1.5884   0.194831   1.0074
 15.5000    21.5028   0.327830   1.5246   0.058887   0.6580
 15.5200    26.4304   0.248501   0.9402   0.127934   1.2999
 15.5400    20.4804   0.167885   0.8197   0.147298  -1.3419
 15.5600    29.9326   0.357256   1.1935   0.084639   1.2768
 15.5800    29.2110   0.343398   1.1756   0.086789   0.4591
 15.6000    23.9897   0.267932   1.1169   0.290461   1.1544
 15.6200    18.6159   0.191962   1.0312   0.100851   0.4728
 15.6400    31.8805   0.389275   1.2210   0.226402  -1.3829
 15.6600    18.6105   0.198246   1.0652   0.185525  -0.3689
 15.6800    24.1033   0.255075   1.0583   0.197551  -0.0753
 15.7000    30.3449   0.491296   1.6190   0.198694  -0.7617
 15.7200    32.1969   0.547913   1.7018   0.213207   0.1433
 15.7400    31.2826   0.459757   1.4697   0.125562   0.1963
 15.7600    19.6543   0.336922   1.7142   0.157134   1.4262
 15.7800    28.4718   0.253724   0.8911   0.153310   0.4540
 15.8000    23.9727   0.276825   1.1548   0.184727   1.1741
 15.8200    22.7597   0.364082   1.5997   0.118340   1.1098
 15.8400    25.6802   0.308105   1.1998   0.186297   0.9499
 15.8600    18.6648   0.302357   1.6199   0.079344   0.3230
 15.8800    21.6597   0.317500   1.4659   0.234491   0.0660
 15.9000    27.3353   0.350068   1.2806   0.114246  -0.1240
 15.9200    31.4190   0.314836   1.0021   0.069202  -0.9197
 15.9400    21.8830   0.210734   0.9630   0.203222   1.4335
 15.9600    26.2725   0.350990   1.3360   0.242046  -1.2785
 15.9800    26.9695   0.288428   1.0695   0.091716  -1.0906
 16.0000    20.4053   0.237727   1.1650   0.208914   0.5407
 16.0200    23.9906   0.276642   1.1531   0.193036  -0.5796
 16.0400    25.7388   0.246074   0.9560   0.100797  -1.1370
 16.0600    20.5949   0.319423   1.5510   0.102540  -1.2602
 16.0800    30.2578   0.484197   1.6002   0.171395   0.2127
 16.1000    18.4339   0.291502   1.5813   0.131581  -0.7446
 16.1200    19.7902   0.247299   1.2496   0.087252  -0.6177
 16.1400    32.3968   0.572044   1.7657   0.235708  -1.2781
 16.1600    31.4299   0.383116   1.2190   0.091393  -0.3123
 16.1800    32.0599   0.413554   1.2899   0.216803  -1.4777
 16.2000    27.3478   0.401249   1.4672   0.170315  -0.0864
 16.2200    31.7143   0.412110   1.2994   0.318379  -0.7045
 16.2400    22.1693   0.237458   1.0711   0.100799   0.9496
 16.2600    26.0583   0.433347   1.6630   0.131195  -0.1934
 16.2800    22.7296   0.222700   0.9798   0.179314  -1.1973
 16.3000    26.1438   0.320584   1.2262   0.121675  -0.3774
 16.3200    23.0037   0.311209   1.3529   0.219117   0.0488
 16.3400    24.3924   0.389501   1.5968   0.205959   0.9753
 16.3600    32.2362   0.391950   1.2159   0.107143   0.6245
 16.3800    27.6497   0.284140   1.0276   0.264538   1.2634
 16.4000    19.5226   0.170044   0.8710   0.161084  -0.8497
 16.4200    32.3961   0.348063   1.0744   0.061269  -0.9366
 16.4400    19.6107   0.337155   1.7192   0.132577  -0.1160
 16.4600    26.1287   0.330048   1.2632   0.146487  -0.6311
 16.4800    19.4311   0.192945   0.9930   0.208141   1.2362
 16.5000    30.1964   0.273277   0.9050   0.052788   1.2766
 16.5200    32.6669   0.370209   1.1333   0.276373   0.1800
 16.5400    27.7065   0.277239   1.0006   0.302393   1.2855
 16.5600    19.5973   0.270683   1.3812   0.243850   0.1533
 16.5800    21.0298   0.192437   0.9151   0.295354  -0.7262
 16.6000    28.9444   0.357631   1.2356   0.058808  -0.9198
 16.6200    30.7599   0.340169   1.1059   0.138030  -0.9419
 16.6400    32.8455   0.507424   1.5449   0.100016   0.1198
 16.6600    26.0244   0.307272   1.1807   0.156958   0.8706
 16.6800    30.6565   0.480790   1.5683   0.110178  -0.3680
 16.7000    19.3129   0.182128   0.9430   0.170863   0.4537
 16.7200    33.2251   0.523885   1.5768   0.246141  -0.6060
 16.7400    30.6710   0.438342   1.4292   0.093743   0.9711
 16.7600    28.2062   0.438235   1.5537   0.154594   0.9523
 16.7800    31.5817   0.507877   1.6081   0.217234  -1.4692
 16.8000    28.5872   0.259806   0.9088   0.143900   0.6469
 16.8200    33.0710   0.588686   1.7801   0.162217  -0.7655
 16.8400    31.9736   0.424979   1.3292   0.229005  -1.4248
 16.8600    19.7423   0.307563   1.5579   0.194551   0.0356
 16.8800    24.8515   0.335494   1.3500   0.085201  -0.5838
 16.9000    28.7581   0.441570   1.5355   0.168508   0.7749
 16.9200    18.9108   0.281866   1.4905   0.143428  -0.0008
 16.9400    19.9325   0.270700   1.3581   0.160587   0.9500
 16.9600    19.2356   0.283389   1.4733   0.301491  -1.1042
 16.9800    30.1816   0.353150   1.1701   0.071962   1.1422
 17.0000    29.6609   0.260451   0.8781   0.163822   0.6023
 17.0200    30.6441   0.520750   1.6994   0.203013   0.3857
 17.0400    31.7183   0.348790   1.0997   0.110831   1.1277
 17.0600    25.5854   0.416907   1.6295   0.221333  -0.6487
 17.0800    31.4287   0.335546   1.0676   0.274723  -1.2459
 17.1000    32.9428   0.569337   1.7283   0.082631  -0.1596
 17.1200    25.9531   0.325512   1.2542   0.120162   0.7949
 17.1400    33.2411   0.315642   0.9496   0.092522   1.1758
 17.1600    26.8840   0.470076   1.7485   0.263621  -1.1706
 17.1800    32.4569   0.279107   0.8599   0.152598  -1.4362
 17.2000    32.3867   0.480236   1.4828   0.122463   0.2672
 17.2200    23.3546   0.398566   1.7066   0.154149   1.4309
 17.2400    27.8822   0.490665   1.7598   0.294764  -1.1187
 17.2600    22.4435   0.267295   1.1910   0.153557  -0.3999
 17.2800    32.4193   0.335091   1.0336   0.212152  -0.6279
 17.3000    21.9805   0.185358   0.8433   0.162373  -1.4092
 17.3200    22.0944   0.213417   0.9659   0.057998  -1.3619
 17.3400    22.1517   0.203155   0.9171   0.178398  -1.4831
 17.3600    26.9825   0.290943   1.0783   0.182477  -1.4711
 17.3800    20.1554   0.198805   0.9864   0.047695   0.4804
 17.4000    30.3779   0.455092   1.4981   0.286276   0.0023
 17.4200    23.8025   0.314759   1.3224   0.212125   0.9095
 17.4400    22.5889   0.360432   1.5956   0.144319   0.8988
 17.4600    29.5791   0.294615   0.9960   0.129662  -1.1076
 17.4800    28.1864   0.444235   1.5761   0.307087   0.5109
 17.5000    32.0569   0.451565   1.4086   0.299930  -0.1182
 17.5200    31.2016   0.340192   1.0903   0.220351  -1.3182
 17.5400    23.3479   0.190362   0.8153   0.141647   0.2999
 17.5600    27.0008   0.230876   0.8551   0.301581  -0.5162
 17.5800    22.3153   0.237527   1.0644   0.108782  -0.1378
 17.6000    22.8613   0.391882   1.7142   0.203607   1.4510
 17.6200    27.8048   0.372525   1.3398   0.195122  -0.4637
 17.6400    25.6343   0.287190   1.1203   0.245541   1.4868
 17.6600    32.8249   0.536947   1.6358   0.248909   0.5916
 17.6800    32.6607   0.439719   1.3463   0.063876  -0.7036
 17.7000    27.5752   0.283199   1.0270   0.228528   1.2729
 17.7200    29.3802   0.496291   1.6892   0.155118  -0.9145
 17.7400    32.9860   0.298944   0.9063   0.179279   0.0054
 17.7600    33.6814   0.484338   1.4380   0.019478  -0.4951
 17.7800    24.6770   0.285809   1.1582   0.242694   0.8569
 17.8000    30.1574   0.347132   1.1511   0.137992  -0.2285
 17.8200    23.1176   0.289759   1.2534   0.172591   0.0394
 17.8400    31.1087   0.258801   0.8319   0.182542  -0.1512
 17.8600    25.8914   0.288064   1.1126   0.127680  -0.1742
 17.8800    33.8806   0.563308   1.6626   0.076634  -0.2500
 17.9000    27.6984   0.373641   1.3490   0.009443  -0.8449
 17.9200    25.2869   0.395323   1.5634   0.083164   0.4886
 17.9400    27.1320   0.359998   1.3268   0.100696   0.0109
 17.9600    31.6747   0.322474   1.0181   0.199320  -1.0538
 17.9800    26.4632   0.321942   1.2166   0.095686   0.2339
 18.0000    23.0588   0.411121   1.7829   0.185081   0.4712
 18.0200    20.9741   0.205922   0.9818   0.181716  -0.7984
 18.0400    23.3014   0.319491   1.3711   0.150402  -0.7774
 18.0600    22.3995   0.336805   1.5036   0.100581  -0.7886
 18.0800    27.3648   0.281956   1.0304   0.219262   1.0243
 18.1000    34.4032   0.308382   0.8964   0.206600  -0.5599
 18.1200    31.0407   0.269198   0.8672   0.123439   0.2430
 18.1400    22.1871   0.232315   1.0471   0.242860  -1.3184
 18.1600    21.1500   0.222432   1.0517   0.228626  -0.5849
 18.1800    31.7641   0.274713   0.8649   0.210597  -1.0012
 18.2000    31.4566   0.253554   0.8060   0.332485  -0.4205
 18.2200    33.8668   0.569700   1.6822   0.161736   0.2698
 18.2400    29.4314   0.248184   0.8433   0.233186  -0.1096
 18.2600    34.6798   0.586196   1.6903   0.215720   0.3046
 18.2800    31.0785   0.429260   1.3812   0.240281   1.3854
 18.3000    29.9887   0.240685   0.8026   0.120515  -0.8499
 18.3200    26.6810   0.315688   1.1832   0.108505  -1.0037
 18.3400    28.9331   0.391336   1.3526   0.316344  -0.8316
 18.3600    24.9418   0.332662   1.3338   0.214686   0.1020
 18.3800    33.3439   0.409541   1.2282   0.141893   0.4292
 18.4000    30.0759   0.299878   0.9971   0.274618   1.0559
 18.4200    23.2766   0.303532   1.3040   0.179074   1.0219
 18.4400    22.1969   0.306980   1.3830   0.291575  -1.2390
 18.4600    23.0391   0.280976   1.2196   0.146141  -0.5302
 18.4800    24.6022   0.256063   1.0408   0.221842  -1.4183
 18.5000    24.1225   0.320821   1.3300   0.211735  -1.3279
 18.5200    28.6170   0.380992   1.3313   0.284705  -1.1063
 18.5400    20.4009   0.214292   1.0504   0.266948  -0.2732
 18.5600    27.8248   0.434437   1.5613   0.217658   0.7746
 18.5800    23.4584   0.357959   1.5259   0.182023   0.6231
 18.6000    24.1431   0.324572   1.3444   0.042581   1.4252
 18.6200    23.8025   0.231360   0.9720   0.090892   0.9911
 18.6400    34.6837   0.441753   1.2737   0.187367  -0.3371
 18.6600    29.7453   0.432707   1.4547   0.234818   0.1251
 18.6800    32.9438   0.516470   1.5677   0.081016  -1.3616
 18.7000    22.4623   0.180521   0.8037   0.262297  -0.6811
 18.7200    23.9707   0.227812   0.9504   0.193906   0.2937
 18.7400    24.5839   0.328373   1.3357   0.147130  -1.2260
 18.7600    28.4536   0.438546   1.5413   0.221179   1.4095
 18.7800    23.6223   0.339039   1.4352   0.249016  -1.4353
 18.8000    28.9432   0.327124   1.1302   0.185372  -0.0032
 18.8200    30.2681   0.304799   1.0070   0.118305   1.1997
 18.8400    32.2014   0.346831   1.0771   0.130609   1.4032
 18.8600    21.1292   0.324556   1.5361   0.146199   0.2992
 18.8800    25.0509   0.307794   1.2287   0.200993  -0.6475
 18.9000    35.0091   0.459941   1.3138   0.141544  -0.2384
 18.9200    22.7170   0.401560   1.7677   0.215938  -0.6449
 18.9400    31.7264   0.477114   1.5038   0.235608   0.8563
 18.9600    25.7484   0.379423   1.4736   0.144200   1.4610
 18.9800    32.4150   0.506182   1.5616   0.135813   0.4423
 19.0000    30.8154   0.299408   0.9716   0.275299  -0.6337
 19.0200    31.7941   0.359171   1.1297   0.217603   0.0808
 19.0400    25.4993   0.254600   0.9985   0.194638   0.2235
 19.0600    20.8113   0.351189   1.6875   0.204489   0.3817
 19.0800    28.8288   0.505294   1.7527   0.174624  -1.1961
 19.1000    27.0195   0.296188   1.0962   0.103363  -1.4569
 19.1200    33.3677   0.507310   1.5204   0.111549  -1.2576
 19.1400    32.8827   0.570360   1.7345   0.221836   1.2704
 19.1600    24.1339   0.310115   1.2850   0.201129  -0.1779
 19.1800    33.3546   0.460125   1.3795   0.132449  -1.1331
 19.2000    23.5164   0.355885   1.5133   0.239333   0.3754
 19.2200    26.3864   0.279760   1.0602   0.144925  -1.4129
 19.2400    24.0390   0.295396   1.2288   0.129879   0.9006
 19.2600    28.9820   0.317566   1.0957   0.245379   1.4431
 19.2800    34.7942   0.338845   0.9739   0.171682   0.9405
 19.3000    34.9274   0.394636   1.1299   0.124736   0.5424
 19.3200    25.5098   0.242602   0.9510   0.194540  -0.1266
 19.3400    35.8660   0.527283   1.4701   0.359771  -1.2238
 19.3600    33.8372   0.458595   1.3553   0.227301   1.1730
 19.3800    31.5977   0.449554   1.4227   0.250310  -0.9604
 19.4000    29.3541   0.317848   1.0828   0.223778   0.0075
 19.4200    33.7679   0.421391   1.2479   0.145887   0.3123
 19.4400    25.9335   0.425655   1.6413   0.235445  -1.0020
 19.4600    35.4492   0.417497   1.1777   0.195076  -0.2965
 19.4800    26.0183   0.223465   0.8589   0.266687  -0.8568
 19.5000    22.2286   0.329309   1.4815   0.226476   1.2905
 19.5200    26.5017   0.326515   1.2321   0.084213   0.6667
 19.5400    29.8538   0.335603   1.1242   0.159234  -0.1552
 19.5600    32.6994   0.329475   1.0076   0.265682  -0.3417
 19.5800    22.1160   0.376233   1.7012   0.185610   0.1027
 19.6000    26.6088   0.325216   1.2222   0.276999  -0.2496
 19.6200    29.3988   0.326007   1.1089   0.226940  -0.8540
 19.6400    25.0052   0.283664   1.1344   0.139907   1.2749
 19.6600    27.4230   0.273388   0.9969   0.134326   1.2481
 19.6800    34.9217   0.560241   1.6043   0.155706  -1.1561
 19.7000    27.9189   0.329960   1.1818   0.185427  -0.5032
 19.7200    24.5721   0.199871   0.8134   0.223649  -0.9867
 19.7400    28.0468   0.266863   0.9515   0.252936  -0.6819
 19.7600    34.2935   0.486913   1.4198   0.231535  -0.6937
 19.7800    24.8652   0.356828   1.4350   0.129277   1.2608
 19.8000    21.2022   0.223070   1.0521   0.197611  -1.2470
 19.8200    24.9028   0.251089   1.0083   0.126811  -0.0154
 19.8400    35.2404   0.540336   1.5333   0.198789   0.0349
 19.8600    25.0531   0.326970   1.3051   0.248655   0.7719
 19.8800    25.2210   0.259926   1.0306   0.216473  -0.8725
 19.9000    28.2009   0.332197   1.1780   0.270960  -0.0921
 19.9200    28.9303   0.272423   0.9417   0.090339   0.6271
 19.9400    34.4386   0.474649   1.3782   0.213149   0.9384
 19.9600    31.9958   0.351543   1.0987   0.254778   1.4132
 19.9800    31.8817   0.378969   1.1887   0.184776  -0.7628
 20.0000    30.5363   0.307299   1.0063   0.120323   0.8720
