#GEFID= 1, 1, 2
#FILEOWNER= Geotechnical Engineering B.V.
#FILEDATE= 2024, 9, 16
#PROJECTID= 2024-001, Site Investigation Project
#COLUMN= 6
#COLUMNINFO= 1, m, Penetration length, 1
#COLUMNINFO= 2, MPa, Cone resistance, 2
#COLUMNINFO= 3, MPa, Sleeve friction, 3
#COLUMNINFO= 4, %, Friction ratio, 4
#COLUMNINFO= 5, MPa, Pore pressure u2, 6
#COLUMNINFO= 6, degrees, Inclination, 8
#XYID= 31000, 155074.98, 462874.84, 0.02, 0.02
#ZID= 31000, 2.09, 0.02
#TESTID= CPT-2024-005
#STARTDATE= 2024, 9, 16
#STARTTIME= 8, 0, 0
#MEASUREMENTTEXT= 1, CPT-2024-005
#MEASUREMENTTEXT= 2, Site Investigation
#MEASUREMENTTEXT= 4, Geotechnical Engineering B.V.
#MEASUREMENTTEXT= 6, Fugro CPT Rig Model F200
#MEASUREMENTTEXT= 9, Electronic cone type E
#MEASUREMENTVAR= 1, 20.00, m, Cone penetration depth
#MEASUREMENTVAR= 2, 2.00, cm/s, Cone penetration rate
#MEASUREMENTVAR= 4, 0.00, m, Cone pre-excavated depth
#MEASUREMENTVAR= 5, 2.09, m, Ground level reference
#MEASUREMENTVAR= 6, 2.09, m, Ground water level
#MEASUREMENTVAR= 9, 0.00, m, Final depth
#MEASUREMENTVAR= 13, 10.00, cm2, Cone surface area
#MEASUREMENTVAR= 16, 0.00, m, Cone apex height
#MEASUREMENTVAR= 20, 90.00, degrees, Cone apex angle
#COLUMNVOID= 1, -9999.99
#COLUMNVOID= 2, -9999.99
#COLUMNVOID= 3, -9999.99
#COLUMNVOID= 4, -9999.99
#COLUMNVOID= 5, -9999.99
#COLUMNVOID= 6, -9999.99
#LASTSCAN= 1
#REPORTCODE= GEF-CPT-Report, 1, 1, 2
#EOH=
  0.0000     1.2974   0.039167   3.0189   0.000000   1.3489
  0.0200     2.0091   0.070459   3.5069   0.011493   1.1993
  0.0400     2.1260   0.082132   3.8631   0.000000   0.4353
  0.0600     1.9068   0.066778   3.5021   0.003824   0.2834
  0.0800     2.0381   0.072225   3.5437   0.003240  -0.6934
  0.1000     1.5632   0.057279   3.6643   0.016287  -1.2624
  0.1200     1.4004   0.052758   3.7673   0.010188   0.5787
  0.1400     1.7391   0.067645   3.8896   0.000000   1.1302
  0.1600     0.8408   0.034635   4.1194   0.001108  -0.1427
  0.1800     1.2483   0.058163   4.6595   0.000000  -0.0075
  0.2000     0.6248   0.018909   3.0265   0.000000   1.4052
  0.2200     0.6396   0.031812   4.9740   0.020401  -1.3490
  0.2400     1.7049   0.077354   4.5372   0.049776   0.1056
  0.2600     1.6643   0.047215   2.8368   0.013452   0.5754
  0.2800     1.9918   0.065954   3.3113   0.028666  -0.5554
  0.3000     1.6641   0.062980   3.7845   0.010656   0.5476
  0.3200     1.3944   0.062091   4.4530   0.000000  -0.5340
  0.3400     0.8211   0.035750   4.3537   0.016604   0.9217
  0.3600     1.8047   0.064771   3.5891   0.000000   0.0689
  0.3800     0.7159   0.022591   3.1557   0.003678   0.0334
  0.4000     1.8658   0.076100   4.0788   0.000000   0.0448
  0.4200     1.4426   0.060526   4.1958   0.000000   1.0548
  0.4400     1.8451   0.066115   3.5834   0.027346   0.9111
  0.4600     2.0858   0.069124   3.3139   0.000000  -0.9307
  0.4800     1.4720   0.059423   4.0368   0.017456   0.2877
  0.5000     0.5696   0.032727   5.7454   0.032342  -1.1275
  0.5200     1.6664   0.081418   4.8859   0.016439   1.3325
  0.5400     0.6225   0.017235   2.7689   0.047593   1.1420
  0.5600     1.3832   0.042251   3.0547   0.003809  -0.4205
  0.5800     0.8702   0.033399   3.8381   0.000000   0.9794
  0.6000     1.9603   0.092231   4.7050   0.060499  -0.2444
  0.6200     1.6937   0.058651   3.4629   0.015534  -0.7662
  0.6400     1.0795   0.034825   3.2259   0.008720   1.2375
  0.6600     1.9492   0.085819   4.4028   0.000000  -1.0077
  0.6800     1.0032   0.037956   3.7833   0.003367  -0.9629
  0.7000     2.0132   0.074772   3.7140   0.053005  -0.9348
  0.7200     0.7980   0.023640   2.9623   0.000000  -0.5291
  0.7400     1.5930   0.061817   3.8805   0.026936   0.1937
  0.7600     0.8006   0.035512   4.4357   0.035056  -0.0204
  0.7800     1.9586   0.081123   4.1419   0.003417   0.7589
  0.8000     2.0186   0.077894   3.8589   0.000000   0.5455
  0.8200     1.7908   0.057522   3.2120   0.044868  -0.7238
  0.8400     1.7692   0.055670   3.1465   0.038546  -0.6529
  0.8600     1.1379   0.039662   3.4856   0.000000   0.6276
  0.8800     2.0052   0.093739   4.6747   0.004002  -1.0117
  0.9000     1.3769   0.052654   3.8240   0.020476  -1.0428
  0.9200     1.4258   0.050086   3.5127   0.000000  -0.6842
  0.9400     1.2318   0.048835   3.9646   0.003288   1.1815
  0.9600     1.4915   0.053495   3.5865   0.000000  -1.3097
  0.9800     0.9281   0.032347   3.4854   0.000000  -1.3490
  1.0000     1.0835   0.046069   4.2517   0.000000   0.6095
  1.0200     1.7376   0.087162   5.0161   0.006596  -0.3335
  1.0400     1.5005   0.063981   4.2640   0.039662  -0.8500
  1.0600     1.4219   0.053880   3.7894   0.025266  -1.1036
  1.0800     1.9460   0.093228   4.7907   0.005106  -0.6751
  1.1000     1.7626   0.059766   3.3908   0.015333   0.1617
  1.1200     0.5654   0.033748   5.9688   0.003034  -1.2075
  1.1400     1.0277   0.038848   3.7801   0.003721   0.3430
  1.1600     1.4958   0.069344   4.6358   0.000000   0.8157
  1.1800     1.7418   0.087289   5.0114   0.013503  -0.0071
  1.2000     1.9236   0.056160   2.9195   0.000000   0.9372
  1.2200     0.6289   0.023088   3.6714   0.000000   0.0421
  1.2400     0.7911   0.038727   4.8953   0.012927  -0.7818
  1.2600     1.5283   0.047817   3.1288   0.063478  -0.3642
  1.2800     2.2415   0.068778   3.0684   0.021156   0.6791
  1.3000     1.3130   0.058593   4.4624   0.043833  -0.3030
  1.3200     1.8407   0.084752   4.6042   0.000336   0.4855
  1.3400     1.3234   0.064784   4.8952   0.000000   1.1307
  1.3600     1.2140   0.053409   4.3995   0.006643  -0.3546
  1.3800     0.6984   0.026665   3.8179   0.038126   1.0260
  1.4000     1.3268   0.059597   4.4918   0.021503   0.0682
  1.4200     1.7152   0.055228   3.2200   0.000097   0.4671
  1.4400     1.0761   0.033373   3.1012   0.003591  -0.2841
  1.4600     1.5277   0.065338   4.2768   0.034756   1.0046
  1.4800     1.0228   0.030303   2.9627   0.042362   0.9655
  1.5000     1.0406   0.036175   3.4764   0.019886  -1.2318
  1.5200     0.5885   0.026198   4.4517   0.015586   0.3324
  1.5400     1.5930   0.063618   3.9936   0.027122  -0.4421
  1.5600     1.7228   0.067899   3.9411   0.000000   0.6726
  1.5800     0.7384   0.029968   4.0588   0.033629  -0.1825
  1.6000     1.6546   0.067698   4.0916   0.022719  -0.3386
  1.6200     2.1858   0.079088   3.6182   0.017480   0.8519
  1.6400     1.1127   0.043475   3.9071   0.027757  -0.2276
  1.6600     2.1176   0.100142   4.7291   0.020338  -0.8219
  1.6800     0.9658   0.044106   4.5668   0.011846  -0.0680
  1.7000     0.5710   0.032433   5.6805   0.033012   0.3018
  1.7200     1.9932   0.099654   4.9998   0.059422  -0.7245
  1.7400     2.1350   0.064748   3.0326   0.038781  -1.1323
  1.7600     0.4804   0.032240   6.7115   0.011082  -1.0372
  1.7800     0.7968   0.027629   3.4675   0.007710   1.4982
  1.8000     2.0587   0.097917   4.7563   0.007806  -0.8470
  1.8200     0.9560   0.036068   3.7728   0.038772   0.8711
  1.8400     1.6079   0.064722   4.0252   0.030808   0.3593
  1.8600     0.9346   0.038215   4.0888   0.000000  -1.2165
  1.8800     1.4560   0.051607   3.5443   0.000000  -0.2600
  1.9000     1.1063   0.034635   3.1307   0.000000   0.3691
  1.9200     0.8478   0.040662   4.7959   0.021627  -1.1658
  1.9400     2.1211   0.069149   3.2600   0.000000   0.1549
  1.9600     0.8201   0.034642   4.2240   0.025295  -1.3191
  1.9800     1.5301   0.068847   4.4996   0.063652  -1.2927
  2.0000     0.8661   0.044384   5.1243   0.000000  -0.1352
  2.0200     1.0260   0.045861   4.4700   0.070514  -1.1527
  2.0400     1.1680   0.066346   5.6804   0.014256  -0.9809
  2.0600     1.5292   0.063038   4.1222   0.005612  -0.1362
  2.0800     1.3518   0.062031   4.5887   0.028617  -0.6079
  2.1000     1.2708   0.053720   4.2272   0.049222   0.4245
  2.1200     1.0269   0.046467   4.5252   0.057287  -0.0717
  2.1400     1.5862   0.067956   4.2843   0.023463   0.1423
  2.1600     2.0109   0.071701   3.5655   0.019150   1.0693
  2.1800     0.7543   0.025133   3.3320   0.023864  -1.3995
  2.2000     0.9765   0.028122   2.8800   0.004295  -0.2343
  2.2200     1.6109   0.064051   3.9761   0.007138  -0.4098
  2.2400     1.4689   0.042864   2.9181   0.040999   1.1288
  2.2600     2.2319   0.076002   3.4053   0.036624   0.0932
  2.2800     2.0524   0.055743   2.7160   0.026042  -0.6492
  2.3000     0.8629   0.036800   4.2647   0.000000   0.0202
  2.3200     2.1034   0.091392   4.3449   0.021854  -1.3864
  2.3400     2.1811   0.077409   3.5491   0.022728   1.0566
  2.3600     2.0907   0.087191   4.1705   0.046448   0.8789
  2.3800     2.0182   0.085542   4.2384   0.000000  -0.1245
  2.4000     2.0389   0.063991   3.1386   0.059787  -1.2572
  2.4200     1.4784   0.063362   4.2860   0.019970   0.6360
  2.4400     0.8894   0.029672   3.3363   0.057315  -0.4673
  2.4600     1.0270   0.050641   4.9311   0.031445  -1.2739
  2.4800     1.8385   0.063185   3.4367   0.034684   0.8611
  2.5000     2.0496   0.073672   3.5945   0.037820  -0.2285
  2.5200     0.7932   0.038189   4.8148   0.038514  -0.2177
  2.5400     2.0625   0.065509   3.1762   0.024624   0.7604
  2.5600     1.8188   0.084289   4.6344   0.022265   0.3778
  2.5800     1.1817   0.039243   3.3210   0.041725   0.6600
  2.6000     1.6805   0.074204   4.4157   0.056282  -1.1362
  2.6200     1.3610   0.059460   4.3689   0.000000  -1.4385
  2.6400     1.6679   0.091971   5.5141   0.056715  -1.0630
  2.6600     1.3553   0.048313   3.5647   0.033978  -1.0781
  2.6800     1.7643   0.072824   4.1278   0.021518  -0.8224
  2.7000     2.0454   0.092155   4.5055   0.007379   0.8842
  2.7200     1.1063   0.039040   3.5287   0.010954   0.7619
  2.7400     2.1231   0.078206   3.6837   0.058823   0.6079
  2.7600     1.1458   0.055867   4.8756   0.006759  -0.9839
  2.7800     1.6658   0.085344   5.1232   0.012951  -0.4346
  2.8000     1.8407   0.084521   4.5919   0.026054   1.1892
  2.8200     1.1322   0.040579   3.5841   0.010889  -0.7535
  2.8400     1.1035   0.053836   4.8788   0.069560  -0.7424
  2.8600     1.3291   0.052886   3.9792   0.028881  -1.1559
  2.8800     2.1851   0.068359   3.1284   0.017855  -0.0898
  2.9000     0.8492   0.042622   5.0191   0.012099  -0.9961
  2.9200     1.3933   0.045433   3.2607   0.014462  -1.2171
  2.9400     1.6613   0.060735   3.6559   0.047811  -1.4715
  2.9600     1.3754   0.041315   3.0039   0.066994  -1.2779
  2.9800     1.7772   0.056450   3.1764   0.034077   0.1224
  3.0000    14.1867   0.093571   0.6596   0.000000  -0.6758
  3.0200     9.5341   0.077455   0.8124   0.000000   0.5201
  3.0400    14.1941   0.168427   1.1866   0.114958   1.4149
  3.0600    13.6060   0.089118   0.6550   0.000000  -1.3251
  3.0800    12.8872   0.157200   1.2198   0.011279  -1.0779
  3.1000    12.8112   0.172297   1.3449   0.046966  -0.1758
  3.1200    11.3055   0.160429   1.4190   0.086403   0.4226
  3.1400    10.2164   0.085886   0.8407   0.013597   1.0450
  3.1600    10.2871   0.118676   1.1536   0.000000   0.7360
  3.1800    11.1108   0.143875   1.2949   0.000000  -1.2227
  3.2000    11.6418   0.157676   1.3544   0.071642  -0.5620
  3.2200    10.4380   0.148849   1.4260   0.056090  -0.2372
  3.2400    14.6477   0.144687   0.9878   0.048698  -0.1309
  3.2600     8.6729   0.084133   0.9701   0.037654  -1.1216
  3.2800     8.9328   0.065747   0.7360   0.000000  -1.4859
  3.3000    10.1886   0.117029   1.1486   0.076333  -0.5627
  3.3200     9.7190   0.114774   1.1809   0.096737   0.1828
  3.3400    10.8547   0.089301   0.8227   0.000000   0.5165
  3.3600    10.0201   0.065168   0.6504   0.048442  -0.6332
  3.3800    15.1899   0.148866   0.9800   0.056483  -1.3009
  3.4000    12.6011   0.166498   1.3213   0.000000   1.4225
  3.4200    10.7719   0.103269   0.9587   0.099799  -1.0057
  3.4400    10.4180   0.113352   1.0880   0.076099  -0.1991
  3.4600    13.3839   0.147111   1.0992   0.059950  -1.4907
  3.4800     9.9121   0.094882   0.9572   0.034442  -0.3881
  3.5000    12.4427   0.171453   1.3779   0.043158   1.1344
  3.5200    10.0091   0.060124   0.6007   0.010256   1.4799
  3.5400    10.4267   0.081788   0.7844   0.086281   0.1338
  3.5600    15.0411   0.125247   0.8327   0.011924   0.8938
  3.5800    11.7535   0.121534   1.0340   0.002452   0.0886
  3.6000     9.0193   0.049860   0.5528   0.091790   0.0731
  3.6200     8.8910   0.119063   1.3391   0.000000   1.3840
  3.6400    15.3664   0.094047   0.6120   0.000000   0.7767
  3.6600    10.9544   0.065128   0.5945   0.025253   0.7485
  3.6800    12.4930   0.143615   1.1496   0.077538  -0.8437
  3.7000     9.5670   0.085583   0.8946   0.039966   0.5613
  3.7200    10.5423   0.101750   0.9652   0.018654   0.0193
  3.7400    10.7897   0.145798   1.3513   0.046553   0.1783
  3.7600    15.2745   0.225754   1.4780   0.080280  -0.8555
  3.7800     8.6346   0.063757   0.7384   0.015362   0.2788
  3.8000    14.6845   0.095220   0.6484   0.032592   0.4953
  3.8200    11.8714   0.104038   0.8764   0.013151  -0.5150
  3.8400    10.8343   0.146404   1.3513   0.000000  -1.4689
  3.8600    15.2341   0.081628   0.5358   0.136505  -0.9960
  3.8800    10.4780   0.078672   0.7508   0.022470  -0.8522
  3.9000    13.7195   0.187543   1.3670   0.034749  -0.0307
  3.9200    12.0710   0.120288   0.9965   0.011450   1.2520
  3.9400     9.3903   0.079873   0.8506   0.029300   1.1219
  3.9600    14.8346   0.155689   1.0495   0.138800  -0.6059
  3.9800     9.6129   0.119930   1.2476   0.021993   0.2523
  4.0000    15.0134   0.098509   0.6561   0.025116   1.4578
  4.0200    15.2134   0.160695   1.0563   0.083558  -0.9712
  4.0400    11.3493   0.091768   0.8086   0.075640  -1.3641
  4.0600    13.2340   0.083029   0.6274   0.037579  -0.2647
  4.0800    14.5649   0.082727   0.5680   0.003732   1.1577
  4.1000     9.1459   0.069503   0.7599   0.107856   1.2167
  4.1200     9.9805   0.056063   0.5617   0.014561  -0.4979
  4.1400    11.8366   0.086332   0.7294   0.038262   0.7420
  4.1600     9.7321   0.121048   1.2438   0.029836  -0.2852
  4.1800    12.6981   0.107080   0.8433   0.085243   0.3259
  4.2000    10.8435   0.152778   1.4089   0.000000  -0.5374
  4.2200    14.0962   0.148028   1.0501   0.000000   0.3598
  4.2400    14.0425   0.186494   1.3281   0.046779  -0.6602
  4.2600    12.1181   0.070253   0.5797   0.042126   0.7407
  4.2800     9.7764   0.135674   1.3878   0.082578   0.7536
  4.3000    10.7461   0.066383   0.6177   0.059890   0.6438
  4.3200     9.9278   0.127295   1.2822   0.000000   0.3378
  4.3400    11.5651   0.062782   0.5429   0.041416   0.1034
  4.3600    12.5788   0.085980   0.6835   0.066743   0.1665
  4.3800    10.3790   0.134427   1.2952   0.012076  -0.8911
  4.4000     9.7793   0.091339   0.9340   0.000000  -0.4918
  4.4200    12.1069   0.143601   1.1861   0.071676  -0.0722
  4.4400    10.0515   0.122268   1.2164   0.028401   0.3456
  4.4600    12.9065   0.143746   1.1137   0.035503  -0.5655
  4.4800    14.6119   0.076568   0.5240   0.022593   0.6118
  4.5000    10.7437   0.100633   0.9367   0.105038  -0.4722
  4.5200     8.9592   0.123291   1.3761   0.000000  -0.9541
  4.5400    14.4747   0.153959   1.0636   0.000000   0.9018
  4.5600    13.5412   0.077959   0.5757   0.022226   1.4822
  4.5800    15.2865   0.146843   0.9606   0.000000  -0.0201
  4.6000    12.2440   0.063631   0.5197   0.088462   1.2134
  4.6200    15.6434   0.171650   1.0973   0.046880  -0.1907
  4.6400    15.3596   0.161018   1.0483   0.082840   0.2610
  4.6600    10.1148   0.107096   1.0588   0.000000   0.0426
  4.6800     9.1208   0.124280   1.3626   0.096579  -0.1365
  4.7000    14.9091   0.145841   0.9782   0.000000  -0.4746
  4.7200     9.6104   0.100900   1.0499   0.000000   1.1272
  4.7400    15.7888   0.229899   1.4561   0.010175  -0.6529
  4.7600    14.2632   0.162062   1.1362   0.048793  -0.7027
  4.7800    10.8807   0.150815   1.3861   0.066137   0.7481
  4.8000    15.0080   0.174530   1.1629   0.150967   0.3031
  4.8200    11.4813   0.106127   0.9243   0.000000   0.5899
  4.8400    14.2186   0.096951   0.6819   0.052612   0.4018
  4.8600    15.0258   0.214772   1.4294   0.062741   0.3384
  4.8800    13.9662   0.087800   0.6287   0.099499  -1.1208
  4.9000    11.7909   0.091782   0.7784   0.132813   1.1772
  4.9200    14.1033   0.142313   1.0091   0.000000   0.2559
  4.9400     9.4984   0.049082   0.5167   0.041092   1.4104
  4.9600    14.0118   0.138221   0.9865   0.050968   0.8920
  4.9800    15.2044   0.113491   0.7464   0.065048   0.9485
  5.0000    10.3407   0.113856   1.1010   0.048492   0.1554
  5.0200    15.1971   0.211002   1.3884   0.134098  -1.3768
  5.0400    12.5637   0.078643   0.6260   0.121309   0.5639
  5.0600    11.0032   0.107546   0.9774   0.106011   0.3663
  5.0800    10.0068   0.152659   1.5255   0.053052  -1.2029
  5.1000    14.3043   0.112611   0.7873   0.001927   1.0368
  5.1200    12.2770   0.184308   1.5012   0.079939   1.3573
  5.1400    14.1904   0.096954   0.6832   0.047678   0.5756
  5.1600    13.4486   0.179914   1.3378   0.071238  -0.8878
  5.1800    15.9407   0.107616   0.6751   0.035088   1.4981
  5.2000    13.0306   0.104975   0.8056   0.046901  -0.3404
  5.2200    14.2016   0.213086   1.5004   0.050285  -1.1224
  5.2400    11.1881   0.160668   1.4361   0.000000  -1.3820
  5.2600    14.3301   0.210948   1.4721   0.019172   0.6990
  5.2800     9.2195   0.091548   0.9930   0.004448  -1.3975
  5.3000    13.3935   0.199510   1.4896   0.024341  -1.2544
  5.3200    10.2701   0.093452   0.9099   0.107755  -0.0438
  5.3400    10.9121   0.107151   0.9819   0.136822  -0.0970
  5.3600    14.7756   0.135512   0.9171   0.058787   0.6374
  5.3800    12.4242   0.078135   0.6289   0.007197  -1.4745
  5.4000    11.8412   0.112984   0.9542   0.087077   0.7006
  5.4200    15.8874   0.198521   1.2495   0.000000  -0.6322
  5.4400    12.4037   0.111826   0.9016   0.125653  -0.5302
  5.4600    13.6770   0.205468   1.5023   0.088060   1.3334
  5.4800    12.2033   0.104317   0.8548   0.138844  -0.1238
  5.5000    14.6889   0.126999   0.8646   0.167206  -0.4618
  5.5200    11.3517   0.096462   0.8498   0.053232  -1.3722
  5.5400    10.7797   0.103521   0.9603   0.000000   0.7237
  5.5600    16.4139   0.087357   0.5322   0.000000  -1.0314
  5.5800    11.0548   0.077659   0.7025   0.000000   0.6274
  5.6000    10.0830   0.106585   1.0571   0.069486  -0.4987
  5.6200    14.1560   0.076590   0.5410   0.079859   0.1393
  5.6400    16.1275   0.090503   0.5612   0.021640   0.6215
  5.6600    10.6075   0.157882   1.4884   0.085303  -0.8330
  5.6800    13.6907   0.081264   0.5936   0.000000   0.2313
  5.7000    14.2793   0.211786   1.4832   0.087629  -0.8285
  5.7200    14.2159   0.138215   0.9723   0.034102   0.4525
  5.7400    10.3740   0.080757   0.7785   0.000000  -1.2768
  5.7600    13.1535   0.194231   1.4766   0.000000  -1.0293
  5.7800     9.5711   0.096547   1.0087   0.060186  -0.2939
  5.8000    14.3568   0.166022   1.1564   0.051735   0.1949
  5.8200    13.4127   0.106477   0.7939   0.015695   0.5742
  5.8400    14.3141   0.151129   1.0558   0.000000   0.1561
  5.8600    15.5377   0.224571   1.4453   0.092126   1.2565
  5.8800    13.3118   0.147061   1.1047   0.105304   1.0573
  5.9000    12.1066   0.127617   1.0541   0.014589   0.1195
  5.9200    12.8313   0.187136   1.4584   0.114600   0.9251
  5.9400    10.9316   0.151779   1.3884   0.081116  -1.1540
  5.9600    12.4763   0.130848   1.0488   0.100038  -0.1994
  5.9800    15.2750   0.126750   0.8298   0.077687   0.9996
  6.0000    13.0375   0.182553   1.4002   0.033125   0.6231
  6.0200    12.7236   0.086962   0.6835   0.110810   1.2248
  6.0400     9.8858   0.148596   1.5031   0.091169  -1.4435
  6.0600    11.3517   0.061316   0.5401   0.062832   1.3971
  6.0800    13.3553   0.090411   0.6770   0.116289  -0.4220
  6.1000    12.4434   0.100133   0.8047   0.107193  -0.8854
  6.1200    13.1744   0.124358   0.9439   0.000000   0.6459
  6.1400    11.1604   0.104635   0.9376   0.080276   0.1977
  6.1600    12.6500   0.136961   1.0827   0.120683  -0.2200
  6.1800    14.5027   0.100299   0.6916   0.025720  -1.4683
  6.2000    14.1170   0.159252   1.1281   0.120630  -0.0929
  6.2200    10.7798   0.146609   1.3600   0.045343  -0.6247
  6.2400    13.6454   0.098134   0.7192   0.080372   0.3819
  6.2600    11.7575   0.165199   1.4050   0.124476  -0.1238
  6.2800    16.4162   0.147156   0.8964   0.048296   1.0192
  6.3000    10.0927   0.147150   1.4580   0.092641  -0.6782
  6.3200    15.6026   0.108952   0.6983   0.051831   0.1664
  6.3400    11.9455   0.067010   0.5610   0.122881  -0.1646
  6.3600    12.9788   0.147998   1.1403   0.071615  -1.1189
  6.3800     9.7279   0.111501   1.1462   0.001746   0.4374
  6.4000    10.9726   0.063210   0.5761   0.000000  -1.0151
  6.4200     9.9702   0.123666   1.2404   0.076140   0.6940
  6.4400    13.9115   0.153821   1.1057   0.051654  -0.6995
  6.4600    16.3519   0.112780   0.6897   0.086005   0.5595
  6.4800    11.8332   0.132451   1.1193   0.000000  -0.0546
  6.5000    12.9250   0.095275   0.7371   0.027490   1.4815
  6.5200    12.6975   0.107733   0.8485   0.082202   0.8565
  6.5400    11.2688   0.167156   1.4833   0.062268  -0.4938
  6.5600    16.7205   0.189236   1.1318   0.085619   1.3202
  6.5800    11.6644   0.080557   0.6906   0.094041   1.0200
  6.6000    10.8838   0.143779   1.3210   0.000000   0.6602
  6.6200    11.9975   0.094021   0.7837   0.000000   1.1945
  6.6400    10.3717   0.100258   0.9666   0.040870   0.4062
  6.6600    14.4918   0.203104   1.4015   0.050958  -0.2852
  6.6800    14.3014   0.171327   1.1980   0.098751  -1.4448
  6.7000    16.2844   0.100964   0.6200   0.063682  -0.4557
  6.7200    13.9827   0.156989   1.1227   0.028807   0.5610
  6.7400    16.4092   0.115114   0.7015   0.069664   0.9316
  6.7600    16.2395   0.151460   0.9327   0.034839  -0.5262
  6.7800    12.3762   0.108032   0.8729   0.210260  -0.1592
  6.8000    15.7050   0.170003   1.0825   0.067451   0.5561
  6.8200    14.4723   0.072678   0.5022   0.121332  -0.6082
  6.8400    12.6333   0.157850   1.2495   0.087615   0.8868
  6.8600    12.2566   0.168639   1.3759   0.104024   1.0101
  6.8800    13.4820   0.071346   0.5292   0.000000  -1.0666
  6.9000    12.4667   0.125003   1.0027   0.047352  -0.9259
  6.9200    15.1621   0.108993   0.7189   0.047051   1.2796
  6.9400    15.4663   0.152166   0.9839   0.052200  -0.0706
  6.9600    10.2716   0.069897   0.6805   0.038150   0.8146
  6.9800    14.3241   0.156968   1.0958   0.109343  -0.6703
  7.0000    10.1639   0.054304   0.5343   0.061480  -0.0455
  7.0200    16.7951   0.170015   1.0123   0.136854  -0.0640
  7.0400    15.0527   0.193319   1.2843   0.095771   0.9364
  7.0600    12.5560   0.184156   1.4667   0.035106  -1.1645
  7.0800    12.8429   0.118775   0.9248   0.018918   0.3763
  7.1000    10.5417   0.120783   1.1458   0.055746   0.0497
  7.1200    11.6374   0.082436   0.7084   0.065446  -0.1787
  7.1400    14.7193   0.153137   1.0404   0.112891  -0.9871
  7.1600    14.0678   0.145566   1.0347   0.133377   1.0282
  7.1800    16.3725   0.170347   1.0404   0.067259  -0.3257
  7.2000    15.1285   0.155094   1.0252   0.000000  -1.0207
  7.2200    10.7958   0.114130   1.0572   0.004217   1.0733
  7.2400    12.9715   0.106229   0.8189   0.064423  -0.6513
  7.2600    13.9024   0.182664   1.3139   0.099965  -1.2727
  7.2800    12.7838   0.163756   1.2810   0.094835   0.5306
  7.3000    13.0724   0.164314   1.2570   0.082920   0.2571
  7.3200    15.8842   0.178430   1.1233   0.072438  -0.5225
  7.3400    17.2243   0.173840   1.0093   0.036850  -0.6863
  7.3600    13.8759   0.107524   0.7749   0.022103   0.5749
  7.3800    14.2810   0.096046   0.6725   0.068748   0.5980
  7.4000    12.8439   0.109595   0.8533   0.052779   1.0254
  7.4200    11.6105   0.089793   0.7734   0.000000   1.0897
  7.4400    10.9119   0.116902   1.0713   0.106406   0.3216
  7.4600    12.8602   0.184532   1.4349   0.179932   0.2967
  7.4800    13.7531   0.158755   1.1543   0.152119  -0.0274
  7.5000    16.4286   0.185308   1.1280   0.096895   1.0009
  7.5200    17.1881   0.149376   0.8691   0.106212   1.2626
  7.5400    15.5327   0.184257   1.1863   0.051268  -1.2000
  7.5600    11.1296   0.134065   1.2046   0.000000   1.3317
  7.5800    11.7758   0.068082   0.5782   0.015684  -0.6152
  7.6000    13.1392   0.129924   0.9888   0.197936  -1.1865
  7.6200    14.5432   0.123932   0.8522   0.117497  -0.7308
  7.6400    12.6473   0.090941   0.7191   0.049509   0.7650
  7.6600    15.8464   0.154961   0.9779   0.057759  -1.2640
  7.6800    16.7511   0.128489   0.7670   0.181190   0.6974
  7.7000    10.3965   0.089050   0.8565   0.113452  -1.2702
  7.7200    15.5324   0.157221   1.0122   0.049665  -0.9366
  7.7400    11.4068   0.124041   1.0874   0.131068   0.0673
  7.7600    13.2197   0.127627   0.9654   0.239262  -0.9765
  7.7800    16.3412   0.222202   1.3598   0.175680  -0.4597
  7.8000    13.0947   0.166997   1.2753   0.142895  -0.5465
  7.8200    15.7580   0.199048   1.2632   0.033442  -1.2272
  7.8400    12.6491   0.081011   0.6404   0.126198  -0.0810
  7.8600    15.9865   0.144320   0.9028   0.156586   0.3987
  7.8800    17.2387   0.161612   0.9375   0.127721   0.2413
  7.9000    12.7808   0.103935   0.8132   0.124082   0.9434
  7.9200    12.9733   0.134387   1.0359   0.133494   0.1273
  7.9400    17.3931   0.237972   1.3682   0.057041   0.1887
  7.9600    14.5557   0.131801   0.9055   0.074636   0.3543
  7.9800    17.2289   0.133180   0.7730   0.114662  -0.0022
  8.0000     3.1756   0.158399   4.9880   0.049088  -1.4844
  8.0200     3.4089   0.192946   5.6600   0.101261   1.0597
  8.0400     3.7261   0.161527   4.3350   0.005136   1.3783
  8.0600     5.5925   0.263927   4.7193   0.055136  -1.1820
  8.0800     6.0547   0.284405   4.6973   0.081410   0.3637
  8.1000     4.9393   0.223227   4.5194   0.143104  -1.3364
  8.1200     5.2253   0.275954   5.2811   0.048639   0.1506
  8.1400     3.4643   0.153423   4.4287   0.131117  -0.4167
  8.1600     5.3994   0.296041   5.4828   0.120799   1.1089
  8.1800     4.7316   0.210418   4.4471   0.116995   0.7934
  8.2000     4.2125   0.247188   5.8680   0.054943   1.4609
  8.2200     3.2125   0.180087   5.6059   0.140872  -0.4566
  8.2400     5.3100   0.213722   4.0249   0.094009   1.0741
  8.2600     4.1877   0.228399   5.4541   0.062121  -0.5935
  8.2800     5.4187   0.239490   4.4197   0.083073  -0.6403
  8.3000     5.1194   0.237977   4.6486   0.063944   0.1178
  8.3200     5.6135   0.289588   5.1588   0.073981   0.0376
  8.3400     5.5596   0.250610   4.5077   0.096143  -1.2804
  8.3600     4.9166   0.249097   5.0665   0.099254  -0.5225
  8.3800     5.2711   0.294833   5.5934   0.103225  -0.0504
  8.4000     3.8901   0.189688   4.8762   0.094710  -1.2244
  8.4200     4.4218   0.225189   5.0927   0.123527   0.1586
  8.4400     3.8583   0.231777   6.0073   0.077087   0.4571
  8.4600     5.3888   0.309380   5.7412   0.133330  -1.2703
  8.4800     4.1346   0.176303   4.2641   0.092555  -0.1835
  8.5000     4.2714   0.252410   5.9094   0.091800   0.2985
  8.5200     4.4604   0.204062   4.5750   0.017681   0.9528
  8.5400     5.9999   0.295620   4.9271   0.091093  -1.1896
  8.5600     5.1175   0.286308   5.5947   0.077638  -0.6733
  8.5800     5.7850   0.281589   4.8676   0.116151  -0.2264
  8.6000     5.1171   0.266075   5.1997   0.104126   0.4127
  8.6200     3.2410   0.143391   4.4243   0.055327  -1.1034
  8.6400     3.3443   0.194881   5.8272   0.079463   1.4095
  8.6600     3.4687   0.204491   5.8952   0.126484  -0.3313
  8.6800     5.4003   0.221855   4.1082   0.063025   1.4562
  8.7000     4.0658   0.218916   5.3844   0.124070  -0.3854
  8.7200     5.8773   0.244771   4.1647   0.044550   1.0844
  8.7400     5.7147   0.266138   4.6571   0.091067   1.2303
  8.7600     4.9971   0.293432   5.8721   0.046682  -0.3928
  8.7800     5.8121   0.330085   5.6793   0.080776   0.5125
  8.8000     4.7280   0.207154   4.3814   0.104319   1.4893
  8.8200     5.9325   0.321697   5.4226   0.105352   0.1084
  8.8400     4.1059   0.232980   5.6742   0.107046   0.5989
  8.8600     4.1068   0.182337   4.4399   0.116134   0.1810
  8.8800     3.4419   0.170088   4.9417   0.100275  -1.2300
  8.9000     6.2125   0.269410   4.3366   0.098877   0.1334
  8.9200     4.5565   0.265848   5.8345   0.041643   0.8904
  8.9400     3.1785   0.177787   5.5934   0.127562   0.5408
  8.9600     6.0890   0.326864   5.3681   0.127165  -0.8589
  8.9800     5.2115   0.240118   4.6075   0.091893   0.2251
  9.0000     4.3346   0.241104   5.5623   0.065016   0.6899
  9.0200     4.8303   0.258392   5.3494   0.109109  -0.6257
  9.0400     4.0971   0.241651   5.8980   0.065988  -0.2522
  9.0600     5.0429   0.244207   4.8426   0.097210   1.0355
  9.0800     5.1753   0.288790   5.5802   0.096512  -0.0061
  9.1000     5.4707   0.233922   4.2759   0.070526  -1.2212
  9.1200     5.1311   0.285062   5.5556   0.129319   1.2796
  9.1400     4.6321   0.205518   4.4368   0.134514  -0.8707
  9.1600     4.6432   0.270040   5.8158   0.098928  -1.4772
  9.1800     5.6805   0.287188   5.0557   0.073011  -1.2451
  9.2000     5.7193   0.249388   4.3605   0.071266  -0.2562
  9.2200     4.7268   0.218052   4.6131   0.070982   0.2654
  9.2400     5.9864   0.341631   5.7068   0.100446   0.7425
  9.2600     4.2545   0.265740   6.2462   0.141912  -1.4543
  9.2800     4.5090   0.195676   4.3397   0.097923  -0.5765
  9.3000     4.4907   0.228554   5.0896   0.071420  -0.5198
  9.3200     3.8732   0.222852   5.7536   0.118945   1.1010
  9.3400     3.9813   0.220334   5.5342   0.094768   0.6847
  9.3600     4.4025   0.190694   4.3315   0.120695   1.0229
  9.3800     3.9348   0.230275   5.8522   0.133060  -0.7205
  9.4000     4.0999   0.193303   4.7149   0.089746   0.5124
  9.4200     4.0511   0.208875   5.1561   0.126288   0.4363
  9.4400     4.7380   0.254342   5.3681   0.050529   0.7049
  9.4600     3.4406   0.152975   4.4461   0.125211   1.2955
  9.4800     5.0804   0.257034   5.0593   0.119984   0.1218
  9.5000     4.4498   0.173833   3.9066   0.084040   0.4147
  9.5200     5.0157   0.241164   4.8082   0.104545   0.2282
  9.5400     5.0976   0.252727   4.9577   0.094621  -0.9252
  9.5600     5.9253   0.320164   5.4033   0.128769  -0.9163
  9.5800     6.3599   0.296927   4.6688   0.027695  -0.8092
  9.6000     6.1556   0.265029   4.3055   0.091293  -0.7498
  9.6200     3.9140   0.218493   5.5823   0.088908   0.8094
  9.6400     5.7701   0.289802   5.0225   0.114461  -1.1518
  9.6600     5.6894   0.305927   5.3771   0.094156   0.1444
  9.6800     6.3961   0.334169   5.2246   0.103281  -1.3361
  9.7000     4.7792   0.285129   5.9661   0.106502   1.2928
  9.7200     3.6487   0.192934   5.2878   0.127985  -0.3025
  9.7400     3.3026   0.191000   5.7834   0.075669   0.1072
  9.7600     4.4049   0.217791   4.9443   0.125569   0.2125
  9.7800     4.7456   0.258500   5.4471   0.116360  -0.5894
  9.8000     4.0334   0.158412   3.9276   0.159184   0.0631
  9.8200     5.2659   0.233394   4.4322   0.090345   0.6518
  9.8400     4.0679   0.186631   4.5879   0.133869  -0.5092
  9.8600     4.9453   0.226251   4.5750   0.170259  -1.1204
  9.8800     5.2055   0.208548   4.0063   0.134085  -0.7236
  9.9000     5.4047   0.272330   5.0387   0.156596  -0.4711
  9.9200     5.3245   0.217061   4.0766   0.094608   0.4908
  9.9400     4.9274   0.245221   4.9767   0.069502   0.0157
  9.9600     3.4405   0.166868   4.8501   0.071964   1.1544
  9.9800     5.8127   0.290156   4.9918   0.080532   0.0572
 10.0000     6.0099   0.325106   5.4095   0.072104   0.9743
 10.0200     6.0540   0.317078   5.2375   0.138382  -0.0236
 10.0400     3.6896   0.194496   5.2714   0.045755  -1.4830
 10.0600     4.5304   0.245370   5.4160   0.077480   0.8793
 10.0800     5.0008   0.204090   4.0811   0.102346  -0.0122
 10.1000     4.4237   0.237637   5.3720   0.075080  -0.9396
 10.1200     5.6085   0.334209   5.9590   0.123471  -1.0441
 10.1400     6.1995   0.374158   6.0353   0.078564  -0.0730
 10.1600     5.6906   0.283719   4.9857   0.093149  -0.8070
 10.1800     5.8163   0.254369   4.3734   0.107856  -0.8705
 10.2000     5.5610   0.228699   4.1125   0.099959   0.3258
 10.2200     4.2618   0.218354   5.1235   0.106096   1.4043
 10.2400     4.5565   0.221774   4.8672   0.133566   0.2754
 10.2600     5.3909   0.246103   4.5651   0.120474   0.1016
 10.2800     4.6565   0.227795   4.8919   0.096979  -0.0555
 10.3000     4.8199   0.196280   4.0723   0.158958  -0.7035
 10.3200     5.5000   0.282826   5.1422   0.123138  -0.3579
 10.3400     5.5139   0.300566   5.4510   0.020937  -0.4860
 10.3600     4.3016   0.251660   5.8504   0.135405  -0.8395
 10.3800     4.2352   0.215864   5.0969   0.082202  -0.0894
 10.4000     4.1468   0.192226   4.6355   0.089834   0.8362
 10.4200     4.2250   0.187903   4.4474   0.103672  -0.3204
 10.4400     6.3966   0.325554   5.0895   0.144418   1.2935
 10.4600     4.3015   0.245996   5.7188   0.116456   0.7453
 10.4800     3.6457   0.203666   5.5865   0.073138  -1.3462
 10.5000     5.3954   0.255975   4.7443   0.122316  -0.6538
 10.5200     5.8764   0.339684   5.7805   0.065276   1.4270
 10.5400     6.5298   0.263364   4.0333   0.134941   0.5343
 10.5600     3.9373   0.214200   5.4403   0.111562   0.3772
 10.5800     4.8581   0.268359   5.5239   0.105593   1.2116
 10.6000     4.8844   0.272787   5.5848   0.106943  -0.6131
 10.6200     4.5109   0.194271   4.3067   0.090535   1.2514
 10.6400     6.3602   0.301071   4.7336   0.181590  -0.1222
 10.6600     5.9093   0.258217   4.3696   0.138416  -0.2169
 10.6800     4.4763   0.214387   4.7894   0.116170   1.0372
 10.7000     4.2566   0.188456   4.4274   0.113254   0.7303
 10.7200     6.1910   0.365378   5.9017   0.160740   1.0294
 10.7400     5.1782   0.292885   5.6562   0.110248  -0.1066
 10.7600     5.8364   0.274698   4.7066   0.052897   0.3392
 10.7800     4.3150   0.229345   5.3151   0.087643  -1.3435
 10.8000     5.2266   0.278215   5.3230   0.127686   0.3251
 10.8200     5.1216   0.277055   5.4095   0.064218   0.6645
 10.8400     5.0503   0.209922   4.1566   0.181288   1.3524
 10.8600     5.8755   0.253442   4.3136   0.100365   1.3279
 10.8800     3.5891   0.197999   5.5167   0.154244  -1.0735
 10.9000     4.0910   0.199667   4.8806   0.105582  -0.6809
 10.9200     5.8766   0.236386   4.0225   0.115475  -0.0771
 10.9400     5.6530   0.311901   5.5174   0.097178   1.1055
 10.9600     4.2330   0.214292   5.0624   0.116801  -1.2547
 10.9800     4.9922   0.263812   5.2845   0.069698  -0.6956
 11.0000     6.1302   0.346582   5.6537   0.161941   0.0188
 11.0200     5.0497   0.214606   4.2498   0.123296   0.8465
 11.0400     5.8559   0.290452   4.9600   0.106137  -0.6711
 11.0600     3.7742   0.170138   4.5079   0.189794   1.1440
 11.0800     6.3471   0.343517   5.4122   0.121462   1.3342
 11.1000     3.9847   0.232689   5.8395   0.091817   1.4919
 11.1200     5.4103   0.291173   5.3819   0.063933   0.3783
 11.1400     5.0243   0.222553   4.4295   0.091248   0.9401
 11.1600     6.6871   0.294497   4.4040   0.086260   1.0056
 11.1800     3.7611   0.159058   4.2290   0.172553  -0.1278
 11.2000     4.9659   0.296346   5.9676   0.152153  -0.8441
 11.2200     6.6201   0.365215   5.5167   0.077280   0.9367
 11.2400     4.7954   0.262133   5.4663   0.093149  -0.8011
 11.2600     4.8451   0.259098   5.3476   0.124611   0.6828
 11.2800     5.7851   0.245392   4.2418   0.171224  -0.4002
 11.3000     4.7902   0.257397   5.3734   0.078273  -0.1868
 11.3200     6.4042   0.322695   5.0388   0.109792  -0.0878
 11.3400     4.3878   0.251281   5.7269   0.118417   0.5620
 11.3600     3.5478   0.191973   5.4111   0.066214  -1.0873
 11.3800     4.4380   0.208754   4.7038   0.116190  -0.0642
 11.4000     4.0702   0.202341   4.9713   0.131010  -0.1774
 11.4200     4.9031   0.236520   4.8239   0.113152  -1.4845
 11.4400     5.1589   0.308624   5.9824   0.061465  -0.1246
 11.4600     6.4083   0.263005   4.1041   0.110204  -1.2496
 11.4800     4.6410   0.252122   5.4325   0.132375  -0.2656
 11.5000     4.3866   0.224648   5.1212   0.148814  -0.2970
 11.5200     6.0917   0.313899   5.1529   0.111481   0.6321
 11.5400     5.4151   0.218274   4.0309   0.136893   0.6866
 11.5600     5.2945   0.315475   5.9585   0.123278   1.2553
 11.5800     5.8876   0.275124   4.6730   0.138055  -0.7352
 11.6000     6.1637   0.372806   6.0484   0.144195   0.1570
 11.6200     4.2843   0.183475   4.2825   0.122124   0.0058
 11.6400     3.7986   0.199541   5.2530   0.055441  -0.4213
 11.6600     4.7922   0.264738   5.5243   0.095036   0.9651
 11.6800     4.3550   0.188677   4.3324   0.121824  -0.0536
 11.7000     4.9576   0.258377   5.2118   0.133201  -1.4438
 11.7200     6.3696   0.293917   4.6143   0.121888  -0.3212
 11.7400     5.6971   0.276049   4.8454   0.083987   0.5670
 11.7600     5.1999   0.267551   5.1453   0.114787  -0.2606
 11.7800     4.7361   0.200246   4.2281   0.128501  -0.4977
 11.8000     6.6541   0.387732   5.8270   0.138777   1.4497
 11.8200     4.0205   0.228754   5.6898   0.148573  -0.2263
 11.8400     4.4029   0.195861   4.4485   0.162992   0.8726
 11.8600     5.7292   0.275950   4.8165   0.113922  -0.7319
 11.8800     3.8493   0.224779   5.8394   0.103817  -0.6584
 11.9000     4.1104   0.186250   4.5312   0.064069   0.8299
 11.9200     4.5677   0.236672   5.1814   0.088313  -0.8306
 11.9400     4.9335   0.254958   5.1679   0.153306  -0.7666
 11.9600     4.0333   0.223728   5.5471   0.062172  -1.2421
 11.9800     5.6987   0.300696   5.2766   0.154941  -0.0476
 12.0000    16.8210   0.247200   1.4696   0.246605  -1.3711
 12.0200    23.3493   0.307033   1.3150   0.042389  -0.4795
 12.0400    25.5395   0.292720   1.1461   0.085853   1.4589
 12.0600    23.7942   0.420652   1.7679   0.070098   1.2350
 12.0800    21.4293   0.258444   1.2060   0.134405   1.0573
 12.1000    21.9620   0.260041   1.1840   0.180708  -0.4687
 12.1200    15.2979   0.254564   1.6640   0.107642   0.1985
 12.1400    26.3381   0.314517   1.1942   0.105258  -0.2977
 12.1600    29.2504   0.241967   0.8272   0.122478  -1.0834
 12.1800    19.3322   0.182976   0.9465   0.168442  -0.0599
 12.2000    23.3873   0.399406   1.7078   0.122392  -0.4811
 12.2200    15.0984   0.253114   1.6764   0.000000   0.4004
 12.2400    28.2070   0.305202   1.0820   0.111579  -0.2321
 12.2600    27.0666   0.303851   1.1226   0.100864  -1.1902
 12.2800    17.1023   0.271386   1.5868   0.116270  -0.0118
 12.3000    28.3003   0.408127   1.4421   0.195264   1.0193
 12.3200    22.0510   0.313433   1.4214   0.120695   1.2504
 12.3400    15.9930   0.132734   0.8300   0.040452   0.6618
 12.3600    29.0491   0.314192   1.0816   0.132964  -1.2640
 12.3800    16.6247   0.185294   1.1146   0.087658   0.4905
 12.4000    20.6338   0.334575   1.6215   0.148544  -0.4902
 12.4200    22.1148   0.375435   1.6977   0.086713  -0.1844
 12.4400    29.3370   0.324685   1.1067   0.034557   0.9025
 12.4600    27.8464   0.404732   1.4534   0.057614   0.3181
 12.4800    17.3478   0.183967   1.0605   0.137803  -1.1176
 12.5000    26.1189   0.213971   0.8192   0.236437   0.9350
 12.5200    19.0617   0.301572   1.5821   0.082700  -0.2613
 12.5400    19.1840   0.228807   1.1927   0.141499   0.9725
 12.5600    19.8704   0.194389   0.9783   0.114304   0.1395
 12.5800    17.8017   0.147807   0.8303   0.125237   1.4558
 12.6000    17.1401   0.160633   0.9372   0.214350   1.2270
 12.6200    19.5438   0.175809   0.8996   0.155188   0.5258
 12.6400    25.5730   0.333644   1.3047   0.090608   0.4953
 12.6600    20.9177   0.256235   1.2250   0.201891  -0.4299
 12.6800    25.7054   0.451029   1.7546   0.131970  -1.0041
 12.7000    26.9576   0.349309   1.2958   0.188250   0.6734
 12.7200    16.2461   0.254851   1.5687   0.114181  -1.0869
 12.7400    29.1208   0.318217   1.0928   0.181422  -0.7036
 12.7600    17.2617   0.158847   0.9202   0.165949   0.9936
 12.7800    29.3483   0.296344   1.0097   0.102388   0.6906
 12.8000    28.8071   0.505120   1.7535   0.183125  -0.5302
 12.8200    28.6799   0.265013   0.9240   0.037282  -0.8003
 12.8400    16.9686   0.142131   0.8376   0.141887  -0.7009
 12.8600    30.5573   0.476677   1.5599   0.131216   1.3736
 12.8800    17.0725   0.139864   0.8192   0.013437   0.8110
 12.9000    26.6651   0.303663   1.1388   0.125746  -0.1078
 12.9200    21.2605   0.188755   0.8878   0.150936  -0.2357
 12.9400    26.6491   0.269626   1.0118   0.127671   0.8730
 12.9600    23.9888   0.338539   1.4112   0.099247  -1.1081
 12.9800    21.0123   0.184955   0.8802   0.129804  -1.2745
 13.0000    23.7810   0.414722   1.7439   0.128361   0.2957
 13.0200    24.2348   0.229741   0.9480   0.095029  -0.1348
 13.0400    18.9478   0.180332   0.9517   0.062075   0.6883
 13.0600    30.3912   0.467247   1.5374   0.103863  -0.3849
 13.0800    23.6063   0.257723   1.0918   0.109315   0.3271
 13.1000    27.2050   0.478186   1.7577   0.247919  -1.3690
 13.1200    19.8729   0.214383   1.0788   0.099920  -1.1015
 13.1400    29.2872   0.492100   1.6803   0.136184  -0.2404
 13.1600    17.0452   0.148538   0.8714   0.159623  -0.4439
 13.1800    18.8138   0.228768   1.2160   0.157547  -0.5735
 13.2000    22.8139   0.307715   1.3488   0.096417   0.4852
 13.2200    28.0897   0.461997   1.6447   0.079236  -0.9139
 13.2400    29.4237   0.307711   1.0458   0.088003   0.0237
 13.2600    22.2905   0.202012   0.9063   0.103751  -0.1857
 13.2800    17.1934   0.172523   1.0034   0.108113  -1.1384
 13.3000    26.6686   0.272572   1.0221   0.156498   0.4117
 13.3200    23.2016   0.278133   1.1988   0.081720  -1.2064
 13.3400    24.8724   0.305353   1.2277   0.147437  -0.7921
 13.3600    18.4689   0.293579   1.5896   0.183000  -1.0051
 13.3800    20.5802   0.165714   0.8052   0.000000  -0.0158
 13.4000    28.3998   0.313781   1.1049   0.156336   0.6651
 13.4200    20.3112   0.335151   1.6501   0.175119  -0.0209
 13.4400    23.3440   0.228914   0.9806   0.149370  -0.7859
 13.4600    25.8419   0.422445   1.6347   0.129558  -0.1455
 13.4800    21.1020   0.208542   0.9883   0.082113   0.1593
 13.5000    23.7247   0.379471   1.5995   0.039384   0.0239
 13.5200    23.2002   0.234092   1.0090   0.085385   0.7561
 13.5400    17.2968   0.203905   1.1789   0.166068   0.1856
 13.5600    22.4888   0.325063   1.4454   0.127546   0.3913
 13.5800    22.0487   0.294753   1.3368   0.144781   0.3874
 13.6000    29.2903   0.339506   1.1591   0.102252  -1.3524
 13.6200    28.9290   0.302671   1.0463   0.113684   0.7266
 13.6400    20.0662   0.283312   1.4119   0.034372   0.1703
 13.6600    28.9618   0.465244   1.6064   0.137158  -1.1588
 13.6800    24.2476   0.427664   1.7637   0.067626  -1.2054
 13.7000    23.5639   0.413316   1.7540   0.159539  -1.2783
 13.7200    19.4314   0.335367   1.7259   0.110307  -0.9589
 13.7400    23.3630   0.335682   1.4368   0.158485   0.6510
 13.7600    22.0234   0.347704   1.5788   0.050196  -1.2877
 13.7800    19.2031   0.230094   1.1982   0.092459   1.0119
 13.8000    21.5057   0.354857   1.6501   0.261590   1.0724
 13.8200    18.5475   0.295834   1.5950   0.150205  -0.6972
 13.8400    20.5214   0.166636   0.8120   0.220983  -0.9469
 13.8600    29.8288   0.257117   0.8620   0.223085  -1.1011
 13.8800    22.8868   0.267806   1.1701   0.083896   1.3200
 13.9000    25.4634   0.330128   1.2965   0.095548   1.3857
 13.9200    30.7769   0.397257   1.2908   0.142641  -1.3746
 13.9400    25.1950   0.390908   1.5515   0.122002  -0.7234
 13.9600    31.4267   0.280595   0.8929   0.114248  -0.3773
 13.9800    30.8404   0.361338   1.1716   0.145672   1.3690
 14.0000    19.1497   0.241691   1.2621   0.117882  -0.4286
 14.0200    27.8338   0.439631   1.5795   0.263001  -0.8352
 14.0400    30.1220   0.265477   0.8813   0.142234  -1.4479
 14.0600    21.2312   0.330460   1.5565   0.058828  -0.9686
 14.0800    20.3998   0.227152   1.1135   0.123983   0.6953
 14.1000    28.8805   0.347834   1.2044   0.220335  -0.9043
 14.1200    21.5812   0.296098   1.3720   0.186417   1.1775
 14.1400    19.0619   0.262599   1.3776   0.071271   0.1334
 14.1600    19.3333   0.347098   1.7953   0.133452  -0.3847
 14.1800    21.6526   0.297091   1.3721   0.089057   1.1401
 14.2000    28.9787   0.318934   1.1006   0.116637   0.6432
 14.2200    25.5324   0.433097   1.6963   0.112457  -0.0769
 14.2400    30.4798   0.476080   1.5620   0.193659  -0.9843
 14.2600    27.4682   0.234132   0.8524   0.130708  -1.4968
 14.2800    19.3474   0.285100   1.4736   0.069583   0.2352
 14.3000    24.7804   0.233136   0.9408   0.164195   1.0619
 14.3200    27.4683   0.253135   0.9216   0.124422  -0.7648
 14.3400    31.8759   0.444714   1.3951   0.150674   1.1683
 14.3600    22.7006   0.305873   1.3474   0.082935  -0.3535
 14.3800    25.5682   0.261857   1.0242   0.144124   0.0763
 14.4000    23.0219   0.249680   1.0845   0.179825  -0.2421
 14.4200    20.1027   0.230405   1.1461   0.146094  -0.5894
 14.4400    22.6754   0.368518   1.6252   0.160893  -1.1345
 14.4600    19.7704   0.331204   1.6753   0.139421  -0.3129
 14.4800    23.9180   0.288843   1.2076   0.234554   0.3723
 14.5000    21.0835   0.294531   1.3970   0.189072  -1.2954
 14.5200    17.3517   0.199451   1.1495   0.119949   0.0101
 14.5400    28.2258   0.360072   1.2757   0.182025   0.0708
 14.5600    25.5612   0.408592   1.5985   0.093555   0.3311
 14.5800    19.0452   0.339657   1.7834   0.211043  -1.1618
 14.6000    31.8885   0.496646   1.5574   0.100182   1.0607
 14.6200    18.8430   0.199546   1.0590   0.218107   0.1288
 14.6400    31.8377   0.383496   1.2045   0.109933   0.3158
 14.6600    19.9634   0.221315   1.1086   0.091242  -1.2156
 14.6800    28.6053   0.490179   1.7136   0.083551  -0.6654
 14.7000    24.4739   0.382226   1.5618   0.287860  -0.9096
 14.7200    18.4911   0.259929   1.4057   0.273306   0.7685
 14.7400    31.2152   0.563155   1.8041   0.174739  -0.6831
 14.7600    23.4163   0.268029   1.1446   0.142584   1.3806
 14.7800    23.5114   0.275070   1.1699   0.198234   0.0444
 14.8000    18.1636   0.194697   1.0719   0.165140  -0.5452
 14.8200    18.8487   0.249519   1.3238   0.107132  -0.1765
 14.8400    21.4905   0.233069   1.0845   0.159658   0.8262
 14.8600    19.4538   0.159599   0.8204   0.201410  -0.8361
 14.8800    31.4337   0.296872   0.9444   0.118101   0.6804
 14.9000    25.0541   0.286669   1.1442   0.179677  -0.4648
 14.9200    20.8927   0.186627   0.8933   0.158920  -1.1695
 14.9400    20.3843   0.172209   0.8448   0.177576  -0.1645
 14.9600    24.4533   0.411160   1.6814   0.169164  -0.7076
 14.9800    31.4590   0.421400   1.3395   0.145832  -1.3584
 15.0000    26.6932   0.460556   1.7254   0.219369   0.4527
 15.0200    18.8578   0.300884   1.5955   0.136724  -0.0636
 15.0400    27.7053   0.488792   1.7643   0.078883   0.9320
 15.0600    28.3926   0.250150   0.8810   0.153770   1.0312
 15.0800    21.3761   0.297112   1.3899   0.192164  -0.0528
 15.1000    21.8823   0.349707   1.5981   0.232085  -1.0760
 15.1200    19.6639   0.330951   1.6830   0.053823  -0.1290
 15.1400    31.9172   0.428320   1.3420   0.270173  -1.3171
 15.1600    28.3281   0.254600   0.8988   0.155682  -1.0252
 15.1800    27.5857   0.393076   1.4249   0.028081  -1.3255
 15.2000    24.9224   0.360351   1.4459   0.297755   0.9636
 15.2200    26.9276   0.303402   1.1267   0.168886   0.9992
 15.2400    23.2762   0.324647   1.3948   0.142963  -1.4114
 15.2600    31.8109   0.562936   1.7696   0.074684  -0.6113
 15.2800    19.0223   0.223023   1.1724   0.115806   0.5303
 15.3000    21.7784   0.379526   1.7427   0.234870   1.1500
 15.3200    23.1414   0.365273   1.5784   0.068753  -0.9296
 15.3400    28.8600   0.379936   1.3165   0.113901   0.5382
 15.3600    19.5768   0.270134   1.3799   0.139827  -0.0817
 15.3800    30.4009   0.321443   1.0573   0.057031   1.2665
 15.4000    19.1891   0.249582   1.3006   0.188383   0.6523
 15.4200    28.0534   0.298289   1.0633   0.120091   1.4336
 15.4400    19.7011   0.222526   1.1295   0.194695  -1.0084
 15.4600    28.7812   0.278660   0.9682   0.175910  -1.1758
 15.4800    28.9898   0.470017   1.6213   0.109041   1.0090
 15.5000    25.1957   0.311909   1.2379   0.158058  -0.2047
 15.5200    25.6467   0.385438   1.5029   0.111565  -1.2976
 15.5400    24.4146   0.409549   1.6775   0.016469  -0.1519
 15.5600    19.6562   0.283370   1.4416   0.022551   1.1228
 15.5800    20.5394   0.204121   0.9938   0.073658   0.1229
 15.6000    18.4045   0.171612   0.9324   0.170994   1.4360
 15.6200    28.2986   0.279829   0.9888   0.108614  -0.7293
 15.6400    23.7149   0.341608   1.4405   0.214555   0.9734
 15.6600    28.8454   0.461933   1.6014   0.256918  -0.2986
 15.6800    25.8381   0.365855   1.4160   0.164629  -0.5578
 15.7000    31.7166   0.484913   1.5289   0.101221   0.1661
 15.7200    32.5519   0.517107   1.5886   0.211273   1.3733
 15.7400    22.2210   0.284561   1.2806   0.181472   0.1407
 15.7600    27.8764   0.291984   1.0474   0.144808  -1.3519
 15.7800    31.9789   0.263319   0.8234   0.105859  -0.2016
 15.8000    23.9635   0.233006   0.9723   0.176942  -1.0794
 15.8200    22.5850   0.246535   1.0916   0.115532  -0.1966
 15.8400    19.8270   0.346494   1.7476   0.136387   1.3674
 15.8600    32.7386   0.588935   1.7989   0.046253  -1.0198
 15.8800    20.9192   0.217887   1.0416   0.168386  -1.4669
 15.9000    31.6895   0.316894   1.0000   0.056602   1.1648
 15.9200    27.0343   0.256667   0.9494   0.149224   1.0700
 15.9400    20.6946   0.292489   1.4134   0.153926  -1.2123
 15.9600    25.5854   0.409024   1.5987   0.090934  -0.1459
 15.9800    21.1596   0.334218   1.5795   0.049669   0.1522
 16.0000    32.9192   0.321497   0.9766   0.163075  -0.4421
 16.0200    19.7134   0.271356   1.3765   0.199014  -0.2826
 16.0400    19.5235   0.218399   1.1186   0.271994  -0.7815
 16.0600    27.0778   0.238691   0.8815   0.177821   0.5638
 16.0800    26.4231   0.450042   1.7032   0.221918  -0.5130
 16.1000    28.7903   0.367253   1.2756   0.167588   1.4410
 16.1200    26.7857   0.381205   1.4232   0.206968  -0.9445
 16.1400    27.5610   0.253899   0.9212   0.219424   1.3392
 16.1600    32.8649   0.497604   1.5141   0.227212  -0.0574
 16.1800    32.2704   0.377149   1.1687   0.168611   0.5249
 16.2000    18.7148   0.156626   0.8369   0.097844   0.0511
 16.2200    19.2835   0.266832   1.3837   0.145956   1.2284
 16.2400    23.9900   0.251358   1.0478   0.188712  -0.9007
 16.2600    18.8286   0.207947   1.1044   0.097836   0.2184
 16.2800    25.7511   0.283744   1.1019   0.211084   0.3041
 16.3000    20.5763   0.246532   1.1981   0.217780  -0.9263
 16.3200    20.2440   0.244729   1.2089   0.057109   0.3532
 16.3400    22.3626   0.274041   1.2254   0.187782   1.4533
 16.3600    27.6639   0.273631   0.9891   0.219623   1.0549
 16.3800    25.7249   0.251664   0.9783   0.100570  -0.3895
 16.4000    32.2259   0.462810   1.4361   0.169194   1.4338
 16.4200    19.4901   0.218086   1.1190   0.151366   0.0173
 16.4400    19.4423   0.300472   1.5455   0.137839  -1.0331
 16.4600    24.7168   0.239607   0.9694   0.192522  -0.2677
 16.4800    27.5957   0.362081   1.3121   0.189333  -0.3127
 16.5000    27.8280   0.266325   0.9570   0.236100   0.6826
 16.5200    21.9430   0.379541   1.7297   0.166114  -0.0084
 16.5400    21.7919   0.361547   1.6591   0.181222   0.6593
 16.5600    30.3229   0.483583   1.5948   0.204460  -0.9704
 16.5800    31.5633   0.449223   1.4232   0.212882  -0.0314
 16.6000    19.1427   0.212211   1.1086   0.116073   1.1606
 16.6200    23.4846   0.410977   1.7500   0.214250  -0.6817
 16.6400    25.6204   0.303619   1.1851   0.176050   0.6438
 16.6600    22.1186   0.385169   1.7414   0.269242  -0.2352
 16.6800    30.8894   0.477493   1.5458   0.072518  -1.2514
 16.7000    19.1818   0.336320   1.7533   0.203608  -0.8449
 16.7200    27.5775   0.359276   1.3028   0.191952   1.4572
 16.7400    32.1830   0.573098   1.7807   0.155108   0.2820
 16.7600    22.7081   0.366504   1.6140   0.099575  -0.6268
 16.7800    30.9494   0.539878   1.7444   0.198729   0.0329
 16.8000    19.5570   0.339891   1.7379   0.230247   0.1913
 16.8200    19.4333   0.240046   1.2352   0.085375  -0.7971
 16.8400    30.8499   0.385287   1.2489   0.144139  -0.2037
 16.8600    33.4502   0.463740   1.3864   0.110488  -0.3439
 16.8800    23.3609   0.341163   1.4604   0.118154  -0.8691
 16.9000    21.6611   0.220418   1.0176   0.351818  -0.6321
 16.9200    27.9053   0.338714   1.2138   0.209859   0.3884
 16.9400    22.5437   0.186354   0.8266   0.099195  -1.0755
 16.9600    33.7317   0.328177   0.9729   0.104208  -0.9961
 16.9800    21.8390   0.276361   1.2654   0.170458  -0.6011
 17.0000    29.5894   0.385326   1.3022   0.194582  -1.0885
 17.0200    33.3510   0.572581   1.7168   0.243713   0.4686
 17.0400    22.3058   0.296489   1.3292   0.231794   1.2944
 17.0600    33.7183   0.389845   1.1562   0.136420  -0.9427
 17.0800    21.5928   0.356220   1.6497   0.124577   0.3193
 17.1000    28.4013   0.365340   1.2863   0.161381  -0.4212
 17.1200    20.4429   0.337983   1.6533   0.169719   1.4558
 17.1400    29.8386   0.339992   1.1394   0.064163   1.3646
 17.1600    19.8803   0.213639   1.0746   0.281808   0.5846
 17.1800    33.5037   0.531610   1.5867   0.137257  -1.4132
 17.2000    30.6163   0.511762   1.6715   0.144294  -1.4888
 17.2200    24.6518   0.409488   1.6611   0.117384   0.9440
 17.2400    33.1244   0.512550   1.5473   0.122748  -1.1191
 17.2600    24.8575   0.340225   1.3687   0.239740  -0.2096
 17.2800    34.0847   0.520461   1.5270   0.241566   0.6722
 17.3000    30.1516   0.352037   1.1676   0.178584  -0.7807
 17.3200    28.5828   0.380292   1.3305   0.180655   1.0480
 17.3400    25.7265   0.440362   1.7117   0.190710   0.7862
 17.3600    21.4188   0.231891   1.0826   0.182741   0.0957
 17.3800    28.2604   0.262852   0.9301   0.149229   0.1809
 17.4000    33.9058   0.401069   1.1829   0.118206  -1.4163
 17.4200    31.3172   0.449737   1.4361   0.099193   0.5409
 17.4400    29.6827   0.386283   1.3014   0.190216   0.6314
 17.4600    25.6193   0.219088   0.8552   0.134853  -1.2544
 17.4800    32.5654   0.428821   1.3168   0.245787   1.3566
 17.5000    28.4187   0.418453   1.4725   0.141898  -0.4696
 17.5200    24.4485   0.231505   0.9469   0.180360  -0.7151
 17.5400    29.9521   0.411298   1.3732   0.129379   0.2495
 17.5600    24.9828   0.304880   1.2204   0.085671  -0.8183
 17.5800    25.7038   0.276323   1.0750   0.192837   1.2250
 17.6000    26.8869   0.346947   1.2904   0.188998  -1.1544
 17.6200    26.5186   0.357178   1.3469   0.180151  -1.1974
 17.6400    20.4853   0.310261   1.5146   0.216158  -1.1851
 17.6600    30.3843   0.532461   1.7524   0.153903  -0.2234
 17.6800    29.3344   0.302971   1.0328   0.048960   0.3004
 17.7000    34.0150   0.524287   1.5413   0.199915   0.9123
 17.7200    27.6634   0.493542   1.7841   0.083959  -1.4323
 17.7400    32.9124   0.383937   1.1665   0.116107  -1.1609
 17.7600    28.7326   0.313780   1.0921   0.232701  -0.7740
 17.7800    26.5540   0.227043   0.8550   0.201592  -0.5265
 17.8000    27.3691   0.305531   1.1163   0.165450  -0.7775
 17.8200    32.5342   0.263120   0.8088   0.214300  -0.0510
 17.8400    26.3556   0.218805   0.8302   0.153538   0.9862
 17.8600    32.6141   0.443287   1.3592   0.210151   0.1722
 17.8800    26.1764   0.383359   1.4645   0.261124  -0.4261
 17.9000    24.9447   0.245823   0.9855   0.159769  -0.6041
 17.9200    28.8900   0.438089   1.5164   0.196071  -0.7130
 17.9400    25.1366   0.263528   1.0484   0.234735   1.4631
 17.9600    29.0798   0.463659   1.5944   0.094173  -1.0443
 17.9800    25.7261   0.396322   1.5405   0.144479  -1.4931
 18.0000    32.2641   0.340312   1.0548   0.251077  -1.3129
 18.0200    26.2366   0.230272   0.8777   0.191565   0.7253
 18.0400    24.7736   0.337851   1.3638   0.231286  -1.4986
 18.0600    31.3241   0.442630   1.4131   0.191574   1.2536
 18.0800    20.4045   0.269131   1.3190   0.263872  -0.7536
 18.1000    27.5497   0.296810   1.0774   0.181754  -0.2353
 18.1200    21.5808   0.310430   1.4385   0.198170  -0.4775
 18.1400    33.5487   0.588133   1.7531   0.190560   0.6285
 18.1600    28.7035   0.495566   1.7265   0.183984  -0.6220
 18.1800    32.9880   0.474053   1.4370   0.178650   1.4777
 18.2000    20.7408   0.348980   1.6826   0.233380  -0.3061
 18.2200    31.5269   0.447738   1.4202   0.104057  -1.3362
 18.2400    34.8882   0.281537   0.8070   0.154154   1.1091
 18.2600    26.2259   0.348753   1.3298   0.151596  -0.8703
 18.2800    20.4962   0.261355   1.2751   0.117287  -0.1333
 18.3000    22.0907   0.308067   1.3946   0.184045   0.3574
 18.3200    28.1867   0.431081   1.5294   0.217040   0.2378
 18.3400    33.3200   0.428627   1.2864   0.229325  -0.2383
 18.3600    26.3202   0.255012   0.9689   0.178593  -1.3247
 18.3800    24.3023   0.361597   1.4879   0.192005  -1.3125
 18.4000    31.0309   0.302260   0.9741   0.123991  -0.9498
 18.4200    22.1685   0.250982   1.1322   0.278467  -0.2616
 18.4400    20.2785   0.238860   1.1779   0.217099   1.1935
 18.4600    22.2679   0.391478   1.7580   0.317275   0.3708
 18.4800    22.3913   0.321739   1.4369   0.151069   0.0667
 18.5000    31.0981   0.283054   0.9102   0.172975   0.5958
 18.5200    33.5830   0.312243   0.9298   0.160812  -1.1575
 18.5400    34.6067   0.460277   1.3300   0.244849  -0.6656
 18.5600    29.8239   0.497846   1.6693   0.132134   0.1001
 18.5800    30.8977   0.406264   1.3149   0.081127  -1.3582
 18.6000    20.5272   0.331993   1.6173   0.215173  -0.5947
 18.6200    31.7748   0.494191   1.5553   0.172858  -1.1018
 18.6400    21.0698   0.366122   1.7377   0.097552   1.0297
 18.6600    30.6552   0.522152   1.7033   0.140444   0.6242
 18.6800    22.0915   0.376514   1.7043   0.063417  -1.3098
 18.7000    31.7876   0.498983   1.5697   0.203302   0.7133
 18.7200    31.0840   0.427140   1.3741   0.292159  -1.1467
 18.7400    32.9949   0.529041   1.6034   0.228371   1.1968
 18.7600    33.4179   0.520993   1.5590   0.201637   1.0048
 18.7800    35.1369   0.603748   1.7183   0.191985  -0.6240
 18.8000    28.2869   0.302780   1.0704   0.194422   1.2112
 18.8200    33.1468   0.366368   1.1053   0.270704   0.0505
 18.8400    33.4258   0.443692   1.3274   0.114728  -0.1747
 18.8600    20.8767   0.341279   1.6347   0.119385   0.3138
 18.8800    21.5079   0.336393   1.5640   0.195364  -0.0471
 18.9000    26.5866   0.370326   1.3929   0.206311   0.9544
 18.9200    32.6361   0.324977   0.9958   0.115630   1.2868
 18.9400    33.9020   0.576438   1.7003   0.240450  -0.0333
 18.9600    20.6694   0.320486   1.5505   0.201967   0.1059
 18.9800    25.4334   0.273983   1.0773   0.151289   1.2165
 19.0000    29.9803   0.455444   1.5191   0.056902  -1.3609
 19.0200    33.1967   0.557283   1.6787   0.165874   0.0548
 19.0400    28.5858   0.318155   1.1130   0.205269   1.4140
 19.0600    24.3128   0.252057   1.0367   0.115721   0.7158
 19.0800    21.7036   0.243743   1.1231   0.142192   0.3416
 19.1000    21.4005   0.262764   1.2278   0.132845  -1.4483
 19.1200    28.6049   0.314667   1.1000   0.101849  -0.8376
 19.1400    26.3559   0.385436   1.4624   0.175530   1.3989
 19.1600    25.3944   0.286532   1.1283   0.277200  -0.2717
 19.1800    31.6028   0.436855   1.3823   0.171728  -0.2088
 19.2000    27.6015   0.484963   1.7570   0.209550   0.6133
 19.2200    28.8559   0.504496   1.7483   0.139810   1.1876
 19.2400    29.3584   0.409011   1.3932   0.234519   0.9575
 19.2600    26.6181   0.251501   0.9448   0.242880  -1.2890
 19.2800    31.0958   0.550700   1.7710   0.161635  -0.3257
 19.3000    30.5190   0.456067   1.4944   0.251823  -0.0747
 19.3200    23.7066   0.306972   1.2949   0.169191   0.4094
 19.3400    30.5637   0.391889   1.2822   0.245222  -0.9408
 19.3600    31.5775   0.330416   1.0464   0.087742  -0.4398
 19.3800    27.7006   0.381196   1.3761   0.163794   1.4959
 19.4000    23.6298   0.209967   0.8886   0.006387  -0.9281
 19.4200    33.7214   0.530624   1.5736   0.246854   1.4989
 19.4400    23.7320   0.388822   1.6384   0.191887  -1.0649
 19.4600    22.7614   0.193136   0.8485   0.282675   0.6311
 19.4800    31.2255   0.386230   1.2369   0.168564  -0.5807
 19.5000    32.5667   0.423590   1.3007   0.133918  -1.2396
 19.5200    21.2943   0.230815   1.0839   0.227093  -1.3246
 19.5400    33.0569   0.471043   1.4249   0.225123  -0.4394
 19.5600    28.4094   0.293098   1.0317   0.195050  -1.3938
 19.5800    32.3234   0.421586   1.3043   0.115775  -1.3316
 19.6000    28.8235   0.434475   1.5074   0.220046  -0.6536
 19.6200    21.3040   0.215340   1.0108   0.124094   0.5590
 19.6400    22.6240   0.325690   1.4396   0.268432   1.4400
 19.6600    31.1208   0.479896   1.5420   0.251704   1.2116
 19.6800    33.3112   0.493115   1.4803   0.284019   0.8899
 19.7000    22.8423   0.295571   1.2940   0.212739   0.4794
 19.7200    24.8114   0.326155   1.3145   0.205003  -0.7080
 19.7400    24.9952   0.255528   1.0223   0.080001   0.9656
 19.7600    29.0395   0.468245   1.6124   0.167237   1.1417
 19.7800    30.0605   0.411268   1.3681   0.223842   0.4541
 19.8000    24.5328   0.364383   1.4853   0.103714   0.2624
 19.8200    29.8246   0.298816   1.0019   0.275373  -0.4974
 19.8400    22.3713   0.326725   1.4605   0.086518   0.4593
 19.8600    34.9705   0.374911   1.0721   0.203556   0.6893
 19.8800    36.2016   0.647786   1.7894   0.097046  -0.3862
 19.9000    21.8855   0.387987   1.7728   0.276709  -0.9576
 19.9200    21.6084   0.291782   1.3503   0.198231  -1.3685
 19.9400    32.0243   0.406195   1.2684   0.158967   0.4535
 19.9600    32.4074   0.358650   1.1067   0.179472   0.6706
 19.9800    28.4144   0.247617   0.8714   0.168264  -0.7006
 20.0000    25.6895   0.411180   1.6006   0.218094  -0.5245
