#GEFID= 1, 1, 2
#FILEOWNER= Geotechnical Engineering B.V.
#FILEDATE= 2024, 9, 15
#PROJECTID= 2024-001, Site Investigation Project
#COLUMN= 6
#COLUMNINFO= 1, m, Penetration length, 1
#COLUMNINFO= 2, MPa, Cone resistance, 2
#COLUMNINFO= 3, MPa, Sleeve friction, 3
#COLUMNINFO= 4, %, Friction ratio, 4
#COLUMNINFO= 5, MPa, Pore pressure u2, 6
#COLUMNINFO= 6, degrees, Inclination, 8
#XYID= 31000, 154923.04, 462880.75, 0.02, 0.02
#ZID= 31000, 2.03, 0.02
#TESTID= CPT-2024-002
#STARTDATE= 2024, 9, 15
#STARTTIME= 14, 0, 0
#MEASUREMENTTEXT= 1, CPT-2024-002
#MEASUREMENTTEXT= 2, Site Investigation
#MEASUREMENTTEXT= 4, Geotechnical Engineering B.V.
#MEASUREMENTTEXT= 6, Fugro CPT Rig Model F200
#MEASUREMENTTEXT= 9, Electronic cone type E
#MEASUREMENTVAR= 1, 20.00, m, Cone penetration depth
#MEASUREMENTVAR= 2, 2.00, cm/s, Cone penetration rate
#MEASUREMENTVAR= 4, 0.00, m, Cone pre-excavated depth
#MEASUREMENTVAR= 5, 2.03, m, Ground level reference
#MEASUREMENTVAR= 6, 2.03, m, Ground water level
#MEASUREMENTVAR= 9, 0.00, m, Final depth
#MEASUREMENTVAR= 13, 10.00, cm2, Cone surface area
#MEASUREMENTVAR= 16, 0.00, m, Cone apex height
#MEASUREMENTVAR= 20, 90.00, degrees, Cone apex angle
#COLUMNVOID= 1, -9999.99
#COLUMNVOID= 2, -9999.99
#COLUMNVOID= 3, -9999.99
#COLUMNVOID= 4, -9999.99
#COLUMNVOID= 5, -9999.99
#COLUMNVOID= 6, -9999.99
#LASTSCAN= 1
#REPORTCODE= GEF-CPT-Report, 1, 1, 2
#EOH=
  0.0000     1.2402   0.035062   2.8272   0.015373   0.1240
  0.0200     1.1557   0.055291   4.7843   0.000000   0.2431
  0.0400     1.6304   0.059203   3.6312   0.000000  -0.2052
  0.0600     0.7950   0.034327   4.3180   0.000000   0.8042
  0.0800     1.0584   0.039638   3.7449   0.000000   0.0850
  0.1000     0.9863   0.031593   3.2032   0.000000  -1.0995
  0.1200     0.7327   0.026203   3.5764   0.000000   0.6895
  0.1400     0.7171   0.024269   3.3842   0.000000   0.7088
  0.1600     1.3617   0.062687   4.6035   0.006730   1.2931
  0.1800     1.4300   0.048661   3.4029   0.026257  -0.3474
  0.2000     1.1265   0.049860   4.4260   0.000000   0.3542
  0.2200     1.1921   0.060651   5.0876   0.032106   0.9516
  0.2400     0.8718   0.026686   3.0610   0.001668   0.0521
  0.2600     1.4610   0.061927   4.2388   0.000000   0.5534
  0.2800     0.9922   0.037987   3.8286   0.026273   1.4708
  0.3000     0.6208   0.026932   4.3386   0.000000   0.2171
  0.3200     0.7516   0.036416   4.8452   0.033299   0.9382
  0.3400     0.5884   0.024647   4.1892   0.000000  -1.3671
  0.3600     0.8689   0.031887   3.6696   0.000000  -0.6179
  0.3800     0.5451   0.020796   3.8148   0.000000  -1.3881
  0.4000     0.4387   0.020624   4.7012   0.000000   0.0464
  0.4200     1.0037   0.030015   2.9904   0.001708  -1.3760
  0.4400     0.7834   0.029371   3.7489   0.000000  -0.0390
  0.4600     1.6857   0.059740   3.5440   0.034028  -0.3979
  0.4800     1.6539   0.061007   3.6886   0.000000  -1.3902
  0.5000     0.7005   0.023254   3.3197   0.000000   0.1312
  0.5200     1.2397   0.061618   4.9705   0.000000   1.0574
  0.5400     1.5047   0.070066   4.6565   0.000574   0.7618
  0.5600     1.2380   0.040869   3.3011   0.041097  -0.9452
  0.5800     1.9616   0.069226   3.5290   0.004476   0.7294
  0.6000     1.1476   0.047302   4.1219   0.025882   1.1418
  0.6200     0.7569   0.032002   4.2279   0.054584   0.9922
  0.6400     1.5528   0.068896   4.4369   0.047172  -0.2475
  0.6600     0.8631   0.033615   3.8948   0.020887  -0.7890
  0.6800     0.8973   0.042865   4.7769   0.007499   0.6565
  0.7000     1.7138   0.051975   3.0327   0.040847   0.2023
  0.7200     1.3606   0.056503   4.1529   0.010284  -0.4390
  0.7400     1.6478   0.053796   3.2648   0.000000  -0.2554
  0.7600     0.7273   0.017959   2.4695   0.004228   0.4056
  0.7800     1.2889   0.064661   5.0169   0.012801  -0.9377
  0.8000     1.3344   0.055829   4.1837   0.035029   0.8696
  0.8200     1.0617   0.038372   3.6141   0.015946   0.0201
  0.8400     1.0692   0.031902   2.9837   0.000000  -1.4320
  0.8600     1.9538   0.076898   3.9357   0.000000  -1.4889
  0.8800     1.9114   0.060475   3.1639   0.019823  -0.1348
  0.9000     1.2381   0.042391   3.4240   0.000000   1.4695
  0.9200     0.9719   0.034985   3.5998   0.046096   0.5986
  0.9400     1.5821   0.043322   2.7383   0.000485   0.4215
  0.9600     1.0610   0.048763   4.5960   0.006190  -0.6177
  0.9800     1.2736   0.050337   3.9523   0.002246  -0.8585
  1.0000     1.5267   0.069600   4.5588   0.000000   0.0793
  1.0200     1.9078   0.070464   3.6935   0.000000  -0.2016
  1.0400     1.9500   0.098185   5.0351   0.000000   0.8829
  1.0600     1.4746   0.071598   4.8553   0.000000   1.1214
  1.0800     1.4012   0.068125   4.8621   0.028019  -0.5958
  1.1000     0.8940   0.028947   3.2378   0.000984   1.1208
  1.1200     1.5551   0.076225   4.9017   0.022107   0.3348
  1.1400     0.7190   0.036384   5.0604   0.007032   0.6518
  1.1600     0.6634   0.027364   4.1251   0.000000  -1.1771
  1.1800     1.3837   0.063144   4.5634   0.064335  -0.1585
  1.2000     1.4177   0.058300   4.1124   0.010624   0.4537
  1.2200     1.8354   0.063126   3.4394   0.000000   1.4639
  1.2400     2.0855   0.089715   4.3018   0.006778   0.0545
  1.2600     1.4894   0.073459   4.9321   0.010662   1.3993
  1.2800     1.6493   0.073087   4.4315   0.013318   0.9697
  1.3000     0.9371   0.025018   2.6697   0.034243  -0.9702
  1.3200     1.6621   0.072638   4.3703   0.025820  -1.0895
  1.3400     0.7591   0.033037   4.3524   0.021815   0.0351
  1.3600     1.2246   0.061402   5.0140   0.000000  -1.4727
  1.3800     1.6229   0.059211   3.6485   0.015527  -0.5441
  1.4000     0.9287   0.040433   4.3539   0.023703  -0.5306
  1.4200     1.3212   0.054440   4.1207   0.018785   0.3602
  1.4400     2.0988   0.102448   4.8813   0.012821   0.1084
  1.4600     1.9232   0.077308   4.0197   0.005410   0.0799
  1.4800     2.0047   0.069166   3.4502   0.000000   0.9900
  1.5000     1.3199   0.056892   4.3102   0.035570   0.9972
  1.5200     1.6990   0.059697   3.5138   0.040408  -0.0569
  1.5400     1.3452   0.058698   4.3633   0.036699  -0.4999
  1.5600     1.1391   0.043843   3.8488   0.000000  -1.4766
  1.5800     0.8369   0.027638   3.3026   0.000000   1.0386
  1.6000     1.9415   0.083429   4.2972   0.000000  -1.2591
  1.6200     1.2171   0.048186   3.9592   0.032471  -1.2592
  1.6400     1.1953   0.045200   3.7814   0.000000  -0.9319
  1.6600     2.1472   0.091484   4.2606   0.004683   0.5752
  1.6800     2.0535   0.098255   4.7846   0.000000   1.3569
  1.7000     1.0013   0.034724   3.4680   0.020363  -0.9281
  1.7200     1.1814   0.045470   3.8488   0.015093  -0.6667
  1.7400     0.5963   0.026091   4.3753   0.013235  -1.0109
  1.7600     0.9835   0.036022   3.6626   0.025770   0.3561
  1.7800     1.2440   0.049953   4.0155   0.018331  -0.5439
  1.8000     1.2331   0.051154   4.1484   0.032971  -1.1178
  1.8200     1.5558   0.062335   4.0066   0.028334  -0.9234
  1.8400     1.1092   0.050399   4.5438   0.000000  -0.8235
  1.8600     1.9628   0.080363   4.0942   0.000000   0.3328
  1.8800     1.4325   0.053754   3.7524   0.000000   1.4967
  1.9000     1.2547   0.058156   4.6349   0.035416   1.2876
  1.9200     1.1885   0.039293   3.3061   0.009335   0.2627
  1.9400     1.7178   0.066895   3.8942   0.000000   1.2598
  1.9600     1.6414   0.068085   4.1480   0.016762   0.5953
  1.9800     0.6056   0.026151   4.3181   0.062567  -0.1443
  2.0000     0.6146   0.032749   5.3281   0.049505   0.4026
  2.0200     1.5323   0.058453   3.8146   0.055471   1.0184
  2.0400     1.7793   0.077607   4.3616   0.006823   0.8085
  2.0600     1.8999   0.069138   3.6390   0.010369   1.0609
  2.0800     2.0469   0.079184   3.8684   0.036546   0.0512
  2.1000     1.1152   0.055300   4.9589   0.025500  -1.3097
  2.1200     1.0202   0.040353   3.9554   0.000000   0.1743
  2.1400     1.6370   0.080503   4.9178   0.019980   0.7127
  2.1600     1.3823   0.065108   4.7103   0.007127  -0.6598
  2.1800     1.8998   0.088288   4.6473   0.044011   0.4442
  2.2000     1.1205   0.048205   4.3023   0.034070   0.7613
  2.2200     2.2715   0.088723   3.9059   0.020083  -0.5605
  2.2400     0.8002   0.039592   4.9478   0.022890  -1.0996
  2.2600     2.1931   0.090527   4.1278   0.056614  -0.9858
  2.2800     1.8972   0.087013   4.5864   0.000000  -0.6926
  2.3000     1.4392   0.057241   3.9772   0.001291   0.5701
  2.3200     1.5452   0.048273   3.1240   0.023881   0.6614
  2.3400     2.0338   0.093309   4.5880   0.042696  -0.1043
  2.3600     1.2143   0.049359   4.0648   0.027991  -0.4208
  2.3800     1.7796   0.059482   3.3425   0.016089   1.2451
  2.4000     1.0862   0.033674   3.1001   0.008340  -1.4009
  2.4200     1.0121   0.047832   4.7261   0.027157  -0.5091
  2.4400     2.0146   0.090044   4.4695   0.019472   1.2143
  2.4600     1.1556   0.059621   5.1594   0.009889  -0.5126
  2.4800     0.8281   0.024541   2.9636   0.011635  -0.0943
  2.5000     1.8910   0.062013   3.2794   0.017221   0.4749
  2.5200     1.8517   0.071605   3.8671   0.029432  -1.0526
  2.5400     1.0068   0.050011   4.9676   0.018455  -0.7749
  2.5600     1.3833   0.063330   4.5781   0.029468  -1.1409
  2.5800     0.9501   0.031615   3.3277   0.047660  -0.1872
  2.6000     0.9420   0.043909   4.6614   0.015791  -0.4599
  2.6200     1.2059   0.053302   4.4200   0.065563   0.0465
  2.6400     1.2019   0.051875   4.3162   0.038561   0.4475
  2.6600     2.1976   0.105956   4.8215   0.047912  -0.4305
  2.6800     2.0839   0.068062   3.2661   0.005898   1.2105
  2.7000     1.6298   0.080658   4.9490   0.019690  -0.6900
  2.7200     1.5833   0.066779   4.2176   0.011378   1.1749
  2.7400     1.2782   0.058894   4.6078   0.015301  -0.0139
  2.7600     1.1182   0.051245   4.5828   0.040774   0.1537
  2.7800     1.1676   0.039442   3.3781   0.026458   0.0191
  2.8000     2.1363   0.089091   4.1703   0.044518  -0.1134
  2.8200     2.0981   0.079435   3.7861   0.001187   0.1149
  2.8400     1.8516   0.067392   3.6397   0.030524   0.2452
  2.8600     0.9260   0.029932   3.2324   0.051658  -0.5653
  2.8800     1.8270   0.077584   4.2465   0.016677  -0.4797
  2.9000     1.9614   0.074824   3.8148   0.020839  -0.9109
  2.9200     1.2008   0.053733   4.4749   0.001990   0.4851
  2.9400     1.3084   0.065577   5.0120   0.042358   1.0405
  2.9600     1.6945   0.064811   3.8249   0.013580  -1.1414
  2.9800     1.9899   0.070407   3.5383   0.023727  -0.5868
  3.0000     9.4282   0.046646   0.4947   0.000000  -1.1592
  3.0200    10.1500   0.092739   0.9137   0.071940  -0.8807
  3.0400    10.7535   0.149096   1.3865   0.000000  -0.6090
  3.0600     8.2532   0.120571   1.4609   0.120221   0.8308
  3.0800    10.6827   0.110026   1.0299   0.053593   0.1336
  3.1000     9.8528   0.061810   0.6273   0.086713   1.2630
  3.1200     9.4567   0.094074   0.9948   0.000000   0.0460
  3.1400    10.6494   0.105748   0.9930   0.028603   1.2279
  3.1600    11.6187   0.074115   0.6379   0.000000   0.4572
  3.1800    12.2067   0.126168   1.0336   0.063133   1.3777
  3.2000    12.7346   0.079417   0.6236   0.000000   0.8035
  3.2200    13.2227   0.150006   1.1345   0.020494  -0.3263
  3.2400    10.2371   0.138328   1.3512   0.006394  -0.7083
  3.2600    12.8400   0.170483   1.3278   0.056201  -0.7512
  3.2800    11.1403   0.152559   1.3694   0.017112   0.7737
  3.3000    13.1691   0.091499   0.6948   0.000000  -0.0077
  3.3200    12.7128   0.183265   1.4416   0.072298   1.4835
  3.3400    15.1509   0.095138   0.6279   0.017949   0.0762
  3.3600     8.5107   0.101623   1.1941   0.000000   1.4928
  3.3800     9.8015   0.068878   0.7027   0.000000   1.4366
  3.4000     9.1419   0.063606   0.6958   0.070349   1.3367
  3.4200    12.8544   0.134215   1.0441   0.014310  -1.0232
  3.4400    11.7532   0.100226   0.8528   0.033510   0.3587
  3.4600    15.1043   0.126736   0.8391   0.008954  -0.9998
  3.4800     8.9913   0.050011   0.5562   0.000000  -0.2757
  3.5000     8.1340   0.069838   0.8586   0.014360   0.2881
  3.5200     8.6932   0.048568   0.5587   0.022875   1.0632
  3.5400    12.5848   0.142986   1.1362   0.021024   0.8202
  3.5600     9.0612   0.124576   1.3748   0.048474   0.9259
  3.5800    12.3769   0.127236   1.0280   0.019989   0.8983
  3.6000    15.1036   0.160768   1.0644   0.042659   1.3233
  3.6200     8.8401   0.118940   1.3455   0.048085   0.3746
  3.6400    13.7181   0.128150   0.9342   0.071443   0.1521
  3.6600    14.3842   0.122161   0.8493   0.000000  -1.2567
  3.6800    10.0268   0.125540   1.2520   0.103427  -0.9443
  3.7000    10.9517   0.154098   1.4071   0.000000   0.8372
  3.7200    14.9314   0.102988   0.6897   0.078322  -0.5315
  3.7400    15.0359   0.117415   0.7809   0.011447   0.7700
  3.7600    10.6855   0.091702   0.8582   0.059857  -1.3473
  3.7800    14.7100   0.135850   0.9235   0.096402   1.2035
  3.8000    14.4172   0.150794   1.0459   0.035980   0.5310
  3.8200    12.1026   0.160747   1.3282   0.141340   0.3416
  3.8400     8.7707   0.057811   0.6591   0.013306   1.1684
  3.8600    15.3610   0.219069   1.4261   0.110486   0.0829
  3.8800    10.2492   0.104568   1.0203   0.083732   0.2745
  3.9000    10.4577   0.089799   0.8587   0.030445   0.3429
  3.9200    11.1993   0.156817   1.4002   0.000794  -1.4702
  3.9400    10.6968   0.057923   0.5415   0.139108  -0.5891
  3.9600    12.5411   0.160077   1.2764   0.041893   1.4547
  3.9800    15.1695   0.151297   0.9974   0.030429   0.4418
  4.0000    15.4027   0.152751   0.9917   0.058419   1.0547
  4.0200    10.1282   0.136637   1.3491   0.018262  -1.0656
  4.0400    11.5427   0.063901   0.5536   0.000000  -1.3790
  4.0600    11.8799   0.130138   1.0954   0.123169  -1.4793
  4.0800    14.2330   0.182589   1.2829   0.051853  -0.2772
  4.1000    15.1007   0.166998   1.1059   0.026262  -0.9538
  4.1200    13.3604   0.091397   0.6841   0.121534  -1.0121
  4.1400    11.4078   0.151724   1.3300   0.029039  -0.2069
  4.1600    15.4646   0.151039   0.9767   0.000000   1.1369
  4.1800    10.9718   0.113535   1.0348   0.026501  -0.8193
  4.2000    11.4909   0.140288   1.2209   0.000000  -1.1312
  4.2200    13.0984   0.076005   0.5803   0.054326   0.4778
  4.2400     9.3213   0.064079   0.6874   0.123561   1.3326
  4.2600    11.7424   0.169814   1.4462   0.013293  -0.6947
  4.2800     9.9291   0.076693   0.7724   0.049692  -0.9929
  4.3000    14.3430   0.174316   1.2153   0.040440  -0.8145
  4.3200     9.8117   0.138511   1.4117   0.053917   0.9922
  4.3400    15.1832   0.097595   0.6428   0.058526  -0.0893
  4.3600    14.1914   0.129736   0.9142   0.000000  -1.0848
  4.3800    13.2500   0.119321   0.9005   0.101207   0.1159
  4.4000    15.6064   0.114369   0.7328   0.000000   1.2632
  4.4200    15.8112   0.226654   1.4335   0.045535   0.0329
  4.4400    14.6946   0.192282   1.3085   0.043926  -0.3587
  4.4600    14.5848   0.134986   0.9255   0.067159   0.1710
  4.4800     9.7718   0.067446   0.6902   0.009911   0.2669
  4.5000    14.2345   0.123514   0.8677   0.001601   0.3882
  4.5200    11.4454   0.122549   1.0707   0.000000   1.2909
  4.5400    11.9549   0.148057   1.2385   0.000000  -1.4726
  4.5600    10.3338   0.079796   0.7722   0.053003   1.3716
  4.5800    14.5029   0.084444   0.5823   0.012412  -0.2683
  4.6000    13.2390   0.153016   1.1558   0.038032  -0.3690
  4.6200    13.6072   0.067719   0.4977   0.060768   0.3474
  4.6400    11.7505   0.103999   0.8851   0.000000   0.1855
  4.6600    15.1134   0.126242   0.8353   0.040389   0.9333
  4.6800    10.5223   0.055127   0.5239   0.203910  -0.4067
  4.7000     9.0697   0.093198   1.0276   0.057458  -1.3716
  4.7200    12.1735   0.121927   1.0016   0.048407  -0.3721
  4.7400    12.6624   0.099185   0.7833   0.139842   1.3395
  4.7600    15.7162   0.134605   0.8565   0.004148  -1.0257
  4.7800    12.3988   0.143056   1.1538   0.095130  -0.2338
  4.8000    10.3180   0.109051   1.0569   0.047461  -0.1755
  4.8200    14.3964   0.189765   1.3181   0.005238  -0.9751
  4.8400     9.9221   0.114450   1.1535   0.098020   0.8509
  4.8600    11.4975   0.088008   0.7655   0.090385  -1.0527
  4.8800    13.8422   0.134643   0.9727   0.026815  -0.1320
  4.9000    10.6930   0.058323   0.5454   0.055566  -0.8170
  4.9200    15.3733   0.096616   0.6285   0.064066  -1.2115
  4.9400    10.0477   0.134307   1.3367   0.047422  -0.7866
  4.9600    13.2986   0.091453   0.6877   0.009973  -0.0651
  4.9800    11.0789   0.144096   1.3006   0.099309  -0.9251
  5.0000    12.8284   0.120596   0.9401   0.105928   0.4106
  5.0200    14.6730   0.094501   0.6440   0.069854   0.3141
  5.0400    12.8098   0.158173   1.2348   0.000000   0.6334
  5.0600    10.9158   0.063350   0.5803   0.018939  -1.2060
  5.0800     9.2267   0.081447   0.8827   0.057275  -0.5330
  5.1000    12.8612   0.189809   1.4758   0.175406   0.9997
  5.1200    14.7795   0.084185   0.5696   0.000000   0.6667
  5.1400    13.7344   0.122934   0.8951   0.084982  -0.2250
  5.1600    10.2390   0.151508   1.4797   0.061441  -0.5737
  5.1800    10.9191   0.102786   0.9413   0.001859  -0.2406
  5.2000     9.7952   0.071865   0.7337   0.110008   0.8146
  5.2200     9.4123   0.133340   1.4167   0.000662   0.4933
  5.2400     9.9915   0.076793   0.7686   0.048995  -1.4163
  5.2600    10.7693   0.130762   1.2142   0.047506  -0.8165
  5.2800    10.2757   0.143332   1.3949   0.059467   1.2103
  5.3000    14.7597   0.089592   0.6070   0.098483   1.1904
  5.3200    12.5045   0.175554   1.4039   0.043825  -0.2041
  5.3400    12.9077   0.072954   0.5652   0.022265   0.5286
  5.3600    13.3772   0.093880   0.7018   0.057379  -1.4796
  5.3800    10.7640   0.063997   0.5945   0.024452   1.2333
  5.4000    13.1052   0.179964   1.3732   0.000000   0.8677
  5.4200    14.3041   0.078575   0.5493   0.049974  -0.7143
  5.4400    12.9011   0.067934   0.5266   0.000000  -0.6610
  5.4600    14.4576   0.115870   0.8015   0.066098  -1.3974
  5.4800    11.8920   0.167837   1.4113   0.094980   0.7454
  5.5000    13.5885   0.176506   1.2989   0.073177   0.6350
  5.5200    16.2347   0.180594   1.1124   0.073329  -1.3531
  5.5400    14.6752   0.208321   1.4195   0.076351  -1.2178
  5.5600    14.1062   0.099045   0.7021   0.061203  -1.0158
  5.5800    10.3363   0.114610   1.1088   0.119387   1.3180
  5.6000    11.3905   0.075573   0.6635   0.026077   0.7737
  5.6200    11.9151   0.114055   0.9572   0.113663   0.0773
  5.6400    14.7372   0.193089   1.3102   0.054864   0.4064
  5.6600    13.7015   0.142355   1.0390   0.000000  -0.5497
  5.6800    10.5315   0.064203   0.6096   0.000000  -0.9813
  5.7000    10.0609   0.128728   1.2795   0.123316  -0.0546
  5.7200    11.7325   0.078208   0.6666   0.083063  -0.9970
  5.7400    15.1422   0.170803   1.1280   0.043062  -0.4081
  5.7600    12.0215   0.086289   0.7178   0.095463  -0.8133
  5.7800    11.6150   0.171525   1.4768   0.050952  -0.5174
  5.8000    12.2936   0.090073   0.7327   0.100711   1.1433
  5.8200    16.0694   0.138875   0.8642   0.045497  -0.8545
  5.8400    10.9621   0.150445   1.3724   0.043452  -1.4598
  5.8600    11.2407   0.061144   0.5440   0.003968   0.3965
  5.8800    12.8758   0.175773   1.3651   0.108338   0.0900
  5.9000    10.5775   0.141902   1.3415   0.060332   0.7553
  5.9200    13.6680   0.116937   0.8555   0.011116   0.4175
  5.9400    10.0645   0.052074   0.5174   0.009266   0.1190
  5.9600    10.3846   0.128918   1.2414   0.062326  -1.4998
  5.9800    14.9952   0.141571   0.9441   0.045495  -1.2209
  6.0000    11.4277   0.164511   1.4396   0.079011   1.3842
  6.0200    12.1122   0.081544   0.6732   0.043246  -1.0548
  6.0400    13.4304   0.173265   1.2901   0.061970  -0.6965
  6.0600    10.9508   0.087105   0.7954   0.097495  -0.3599
  6.0800    11.2645   0.161503   1.4337   0.099541   1.1529
  6.1000    16.2968   0.234763   1.4405   0.059990  -0.9537
  6.1200    16.3623   0.147615   0.9022   0.062222   0.5638
  6.1400    10.9649   0.141703   1.2923   0.046629   1.1591
  6.1600    13.3447   0.168510   1.2627   0.031211   0.1390
  6.1800    14.5247   0.202365   1.3932   0.010814  -0.0026
  6.2000    10.2713   0.152082   1.4806   0.036035  -0.0612
  6.2200    13.5803   0.168583   1.2414   0.107920  -0.6164
  6.2400    12.9569   0.130997   1.0110   0.084673   1.1715
  6.2600    12.1070   0.139103   1.1489   0.004897  -0.1366
  6.2800    12.5495   0.105029   0.8369   0.176293   0.8434
  6.3000    12.7023   0.102906   0.8101   0.025128   1.1580
  6.3200    16.7002   0.191112   1.1444   0.058728   0.4354
  6.3400    11.7047   0.101137   0.8641   0.063580  -1.2090
  6.3600    13.6833   0.152119   1.1117   0.135462   0.9654
  6.3800    14.8139   0.075752   0.5114   0.135195  -1.3668
  6.4000    12.5806   0.134576   1.0697   0.026147   1.4577
  6.4200    10.0100   0.138518   1.3838   0.081100   0.1140
  6.4400    13.8465   0.095725   0.6913   0.070408  -0.8161
  6.4600    10.1379   0.097097   0.9578   0.061658   0.5411
  6.4800    12.2984   0.126204   1.0262   0.084474   1.4985
  6.5000    10.2668   0.128110   1.2478   0.097568  -1.4829
  6.5200    15.3291   0.211562   1.3801   0.119885   0.3597
  6.5400     9.9180   0.101104   1.0194   0.055009   0.3402
  6.5600    10.8552   0.133909   1.2336   0.071588  -0.1358
  6.5800     9.7217   0.099440   1.0229   0.120286   0.6220
  6.6000    12.8326   0.115687   0.9015   0.087660  -0.3469
  6.6200    12.7717   0.148263   1.1609   0.126804   0.2838
  6.6400    14.0573   0.160835   1.1441   0.095819  -0.5364
  6.6600    15.8262   0.210905   1.3326   0.000000  -0.8899
  6.6800    15.9729   0.084458   0.5288   0.139904   0.7428
  6.7000    11.2533   0.166113   1.4761   0.106334   0.1975
  6.7200    11.3120   0.156322   1.3819   0.125453  -1.2942
  6.7400    12.2739   0.162873   1.3270   0.109992   0.3778
  6.7600    12.1119   0.135587   1.1195   0.119840   0.8916
  6.7800    12.3183   0.141078   1.1453   0.000000   0.4269
  6.8000    13.5688   0.082989   0.6116   0.096782  -0.5005
  6.8200    13.3997   0.158288   1.1813   0.029617   1.3816
  6.8400    16.0629   0.108164   0.6734   0.000267   0.7956
  6.8600    15.3223   0.216271   1.4115   0.058793   0.6623
  6.8800    10.0020   0.140466   1.4044   0.164006   0.2102
  6.9000    15.3449   0.176921   1.1530   0.035864  -1.2746
  6.9200    10.7060   0.119281   1.1142   0.002475  -0.9491
  6.9400    14.4734   0.208452   1.4402   0.088246   0.4053
  6.9600    13.0097   0.120794   0.9285   0.021391  -1.3378
  6.9800    13.5832   0.097305   0.7164   0.062103  -0.8432
  7.0000    12.6595   0.183927   1.4529   0.101166  -1.2639
  7.0200    14.6166   0.134522   0.9203   0.000000   0.1867
  7.0400    10.8493   0.080939   0.7460   0.003789   0.6471
  7.0600    12.9175   0.150804   1.1674   0.020071   0.4977
  7.0800    16.6803   0.223546   1.3402   0.149942   0.7934
  7.1000    12.6134   0.101098   0.8015   0.106817   0.2923
  7.1200    11.8041   0.096826   0.8203   0.113108  -1.4440
  7.1400    16.0504   0.224043   1.3959   0.050483  -0.8825
  7.1600    10.7977   0.096137   0.8903   0.116247   0.8885
  7.1800    11.6093   0.126401   1.0888   0.045769   0.4636
  7.2000    10.5173   0.055978   0.5322   0.148591   0.2304
  7.2200    12.7771   0.186295   1.4580   0.126556   0.2002
  7.2400    12.7227   0.104973   0.8251   0.052749   0.2482
  7.2600    10.3714   0.126391   1.2187   0.138948  -0.4406
  7.2800    14.4255   0.131310   0.9103   0.093595   0.6155
  7.3000    11.6612   0.166050   1.4239   0.069246  -0.8604
  7.3200    13.8105   0.100178   0.7254   0.215228  -0.9314
  7.3400    15.4474   0.229018   1.4826   0.078213   1.4195
  7.3600    15.9460   0.160446   1.0062   0.112940  -0.9157
  7.3800    15.6439   0.134714   0.8611   0.106331   0.8959
  7.4000    15.4723   0.167069   1.0798   0.153720   0.4309
  7.4200    12.5092   0.063871   0.5106   0.160484   0.1213
  7.4400    13.0238   0.124199   0.9536   0.000000   0.8393
  7.4600    16.0921   0.222254   1.3811   0.054644   0.1231
  7.4800    12.7173   0.165030   1.2977   0.147859  -0.6010
  7.5000    16.5854   0.168590   1.0165   0.087305  -1.0958
  7.5200    11.7041   0.065037   0.5557   0.125338   0.8829
  7.5400    10.4120   0.058253   0.5595   0.024527  -0.7537
  7.5600    17.1024   0.220976   1.2921   0.020409   1.4369
  7.5800    13.6701   0.149983   1.0972   0.081968   0.2708
  7.6000    10.2849   0.146325   1.4227   0.052482   1.4045
  7.6200    13.6967   0.123355   0.9006   0.078525   0.9907
  7.6400    16.9304   0.176492   1.0425   0.080710   0.8561
  7.6600    11.7435   0.079256   0.6749   0.059591  -0.4398
  7.6800    13.9641   0.078003   0.5586   0.112737   0.1213
  7.7000    11.1516   0.082586   0.7406   0.087405  -1.3245
  7.7200    11.0783   0.131220   1.1845   0.117044  -0.2468
  7.7400    15.5707   0.113528   0.7291   0.011743   0.0904
  7.7600    11.4766   0.166316   1.4492   0.000000  -1.3404
  7.7800    15.2546   0.096875   0.6351   0.075894   1.3394
  7.8000    16.9504   0.145101   0.8560   0.071850   1.3102
  7.8200    17.0422   0.227951   1.3376   0.043354  -0.5281
  7.8400    11.8820   0.097491   0.8205   0.062435  -0.5182
  7.8600    11.2454   0.097529   0.8673   0.042237  -0.4896
  7.8800    12.9796   0.121149   0.9334   0.156826   1.0372
  7.9000    17.0795   0.129745   0.7596   0.093469  -0.8911
  7.9200    17.3085   0.226961   1.3113   0.036434  -0.9385
  7.9400    11.1062   0.115338   1.0385   0.077977  -1.3472
  7.9600    14.5862   0.172003   1.1792   0.114040  -0.1720
  7.9800    14.7398   0.097145   0.6591   0.113745  -0.7815
  8.0000     5.2339   0.301145   5.7537   0.071845  -1.1554
  8.0200     3.2403   0.181849   5.6121   0.093204   0.7219
  8.0400     4.7722   0.245894   5.1526   0.070823   0.7503
  8.0600     6.0721   0.329047   5.4190   0.036697  -0.3784
  8.0800     5.2700   0.310889   5.8992   0.061144  -1.3050
  8.1000     4.0183   0.194909   4.8505   0.086673   1.0465
  8.1200     4.0640   0.196451   4.8339   0.061889  -0.0851
  8.1400     3.8721   0.174830   4.5151   0.084790  -0.5208
  8.1600     3.6220   0.179374   4.9523   0.100951   0.4742
  8.1800     4.4893   0.266641   5.9395   0.093911   0.3293
  8.2000     3.5134   0.206844   5.8872   0.075035   0.9500
  8.2200     5.4144   0.265780   4.9088   0.076211   0.2117
  8.2400     3.5243   0.183160   5.1970   0.075901   0.9685
  8.2600     3.3817   0.162214   4.7968   0.101117   1.0399
  8.2800     3.3804   0.161989   4.7920   0.114410   0.3621
  8.3000     3.5231   0.172250   4.8892   0.076647   0.5725
  8.3200     4.7947   0.218227   4.5514   0.090484  -1.2468
  8.3400     4.4535   0.247684   5.5615   0.058796   0.7394
  8.3600     3.7516   0.189048   5.0391   0.107655  -0.6563
  8.3800     4.1413   0.230891   5.5753   0.117044   0.3496
  8.4000     5.8298   0.278032   4.7691   0.067229   0.3288
  8.4200     4.6811   0.225316   4.8133   0.150225  -0.6352
  8.4400     5.0384   0.299730   5.9489   0.095952  -0.8840
  8.4600     4.0357   0.213589   5.2925   0.065396  -0.1451
  8.4800     4.4537   0.265322   5.9573   0.082492  -1.1795
  8.5000     3.5925   0.170826   4.7551   0.034927  -0.7227
  8.5200     4.7465   0.259590   5.4691   0.059075  -0.7777
  8.5400     4.9629   0.263284   5.3050   0.063970  -0.8575
  8.5600     6.0002   0.299340   4.9888   0.086693  -0.2747
  8.5800     3.2566   0.134219   4.1214   0.111729  -0.3942
  8.6000     3.7900   0.220417   5.8157   0.063570  -0.7089
  8.6200     5.5980   0.324030   5.7883   0.096963   1.1880
  8.6400     4.1682   0.247682   5.9422   0.122980   0.9030
  8.6600     4.1186   0.227286   5.5185   0.120127  -0.2757
  8.6800     4.8347   0.264669   5.4744   0.090492   0.0724
  8.7000     4.7288   0.213675   4.5186   0.058398  -0.8537
  8.7200     4.7882   0.249428   5.2092   0.105748  -0.7943
  8.7400     5.2013   0.259732   4.9936   0.105025  -1.0911
  8.7600     4.1390   0.168453   4.0699   0.073638   0.7811
  8.7800     5.1832   0.264462   5.1023   0.132903  -1.1837
  8.8000     4.4749   0.257456   5.7534   0.037323   1.0902
  8.8200     5.3385   0.255693   4.7896   0.095582   0.2169
  8.8400     4.3093   0.255986   5.9403   0.115148  -1.2373
  8.8600     4.3812   0.228811   5.2226   0.090909  -1.3053
  8.8800     4.0638   0.227422   5.5962   0.168983   0.1345
  8.9000     4.8039   0.249062   5.1845   0.110346   1.4393
  8.9200     5.8884   0.309709   5.2597   0.088584  -0.0810
  8.9400     5.0615   0.264934   5.2343   0.101048   1.3571
  8.9600     4.2662   0.241885   5.6698   0.043062   0.5092
  8.9800     3.4966   0.156270   4.4691   0.080734   0.4971
  9.0000     5.4988   0.225607   4.1028   0.066354   1.0838
  9.0200     4.9821   0.269035   5.4000   0.050182  -0.8830
  9.0400     5.8025   0.277712   4.7861   0.088669   0.4384
  9.0600     4.1170   0.205715   4.9968   0.119745  -1.4178
  9.0800     5.3307   0.316254   5.9327   0.073685   1.0570
  9.1000     5.9981   0.255239   4.2553   0.118018   0.9955
  9.1200     3.5547   0.224860   6.3257   0.116435   0.1914
  9.1400     5.7005   0.333037   5.8423   0.111147   0.4640
  9.1600     4.0144   0.224840   5.6008   0.035043   0.7327
  9.1800     5.3545   0.241128   4.5033   0.082396  -0.6170
  9.2000     3.8187   0.161424   4.2272   0.071433   0.8403
  9.2200     3.8526   0.217182   5.6372   0.049616   0.2303
  9.2400     4.7768   0.217089   4.5446   0.070245  -0.7178
  9.2600     3.2149   0.151129   4.7009   0.076124  -0.2989
  9.2800     3.4057   0.179328   5.2655   0.074188   1.2723
  9.3000     5.5097   0.301607   5.4741   0.071861   0.4221
  9.3200     3.9986   0.194003   4.8517   0.073381  -0.6134
  9.3400     3.4377   0.145399   4.2295   0.155931   0.3837
  9.3600     4.7053   0.228212   4.8501   0.113856  -1.3990
  9.3800     6.0933   0.249127   4.0885   0.061923   0.0804
  9.4000     4.3541   0.241403   5.5443   0.082301  -0.6108
  9.4200     3.5595   0.163318   4.5883   0.048799   0.1811
  9.4400     4.8081   0.207511   4.3159   0.072368  -0.9860
  9.4600     4.4331   0.218942   4.9388   0.146380  -0.2336
  9.4800     3.5518   0.151046   4.2526   0.100464   1.4827
  9.5000     6.3139   0.316204   5.0080   0.165294  -1.1436
  9.5200     5.8760   0.266712   4.5390   0.091681  -1.0797
  9.5400     3.4374   0.202638   5.8950   0.082553   1.4981
  9.5600     4.7777   0.260250   5.4472   0.137215  -1.1555
  9.5800     5.0008   0.268861   5.3764   0.019028   1.0878
  9.6000     3.9578   0.193783   4.8962   0.074677  -1.4578
  9.6200     5.6969   0.283242   4.9719   0.123550  -0.0366
  9.6400     3.4960   0.188174   5.3825   0.047487  -0.1526
  9.6600     4.9866   0.269715   5.4088   0.143371  -1.0517
  9.6800     5.7734   0.246976   4.2778   0.120507   0.4548
  9.7000     4.1092   0.212501   5.1713   0.149324   0.5571
  9.7200     5.8040   0.324761   5.5955   0.139237  -1.3151
  9.7400     4.6117   0.240533   5.2157   0.117240   1.3098
  9.7600     3.6909   0.187316   5.0750   0.066754  -1.3350
  9.7800     5.4746   0.250175   4.5698   0.087259   0.8843
  9.8000     5.2554   0.239992   4.5666   0.103428  -0.8227
  9.8200     4.1999   0.212451   5.0584   0.046067   0.0947
  9.8400     4.0292   0.158577   3.9357   0.092618  -1.4319
  9.8600     6.0664   0.321556   5.3006   0.115168  -0.9894
  9.8800     5.1396   0.227785   4.4320   0.102062  -0.0004
  9.9000     3.8911   0.201582   5.1806   0.101112   1.2936
  9.9200     5.1544   0.272081   5.2786   0.094231   0.0936
  9.9400     5.1722   0.260029   5.0274   0.080389   0.9611
  9.9600     5.8858   0.271805   4.6180   0.135265   0.3679
  9.9800     5.6069   0.232861   4.1531   0.079643   0.5037
 10.0000     5.0062   0.276245   5.5180   0.122747   1.4361
 10.0200     5.9671   0.317850   5.3267   0.119024  -0.9441
 10.0400     3.7147   0.192007   5.1688   0.071725  -0.6404
 10.0600     4.8847   0.289086   5.9182   0.162664  -0.7696
 10.0800     5.7498   0.346820   6.0318   0.135471   0.2236
 10.1000     3.8158   0.174204   4.5653   0.110179  -1.0233
 10.1200     4.8609   0.246760   5.0764   0.059137  -0.8706
 10.1400     3.6010   0.183784   5.1036   0.134666   1.0175
 10.1600     4.2802   0.170682   3.9877   0.072899   0.1103
 10.1800     6.1307   0.246768   4.0251   0.093380   1.3106
 10.2000     4.1701   0.217920   5.2258   0.114930  -0.7166
 10.2200     4.1240   0.171647   4.1622   0.134275  -0.8446
 10.2400     5.2092   0.272299   5.2273   0.106803   0.3744
 10.2600     5.8084   0.262772   4.5240   0.024682  -0.2249
 10.2800     4.3193   0.177142   4.1012   0.047230  -0.8952
 10.3000     3.7827   0.150109   3.9683   0.114562   0.0674
 10.3200     5.8923   0.249895   4.2410   0.077587  -1.3200
 10.3400     4.2843   0.199408   4.6544   0.068900   0.2902
 10.3600     3.8221   0.214539   5.6131   0.081841   0.2516
 10.3800     6.3255   0.372557   5.8898   0.089191  -0.9242
 10.4000     3.8931   0.220364   5.6604   0.133834   0.2962
 10.4200     4.6111   0.184293   3.9967   0.097191   0.5306
 10.4400     5.1415   0.294704   5.7319   0.146733   1.2012
 10.4600     3.8256   0.214689   5.6120   0.117829  -0.6724
 10.4800     3.5925   0.158560   4.4136   0.078089   1.1460
 10.5000     6.1348   0.339805   5.5390   0.138999   1.0559
 10.5200     5.4169   0.288976   5.3348   0.094582   0.7554
 10.5400     6.3297   0.348585   5.5071   0.128511   0.3438
 10.5600     6.4874   0.359045   5.5345   0.082997   1.1966
 10.5800     6.2958   0.309993   4.9238   0.135227   0.4760
 10.6000     4.5568   0.191446   4.2013   0.111534   0.3135
 10.6200     5.8439   0.256838   4.3950   0.121672   0.3885
 10.6400     4.7436   0.205967   4.3420   0.156225   1.0376
 10.6600     5.4959   0.263706   4.7982   0.087665  -1.0169
 10.6800     5.1577   0.297588   5.7698   0.096640   0.6957
 10.7000     5.0776   0.257611   5.0735   0.063592   1.0782
 10.7200     4.4378   0.203730   4.5908   0.104499   1.1765
 10.7400     6.1741   0.309767   5.0172   0.144537  -0.9923
 10.7600     5.0775   0.225827   4.4476   0.116267   1.0934
 10.7800     4.4744   0.263951   5.8991   0.138592   0.0196
 10.8000     4.8270   0.240629   4.9851   0.048123  -0.3833
 10.8200     3.9976   0.204901   5.1256   0.095280   1.2327
 10.8400     6.3626   0.300383   4.7211   0.111108  -0.4417
 10.8600     4.6059   0.258505   5.6125   0.087573   0.9110
 10.8800     4.8704   0.253472   5.2044   0.101652   1.0311
 10.9000     3.6687   0.191810   5.2283   0.020861  -1.1515
 10.9200     5.8470   0.324933   5.5573   0.068209  -1.4597
 10.9400     4.1580   0.203681   4.8985   0.111379   0.0572
 10.9600     5.5340   0.334821   6.0502   0.105020   0.1955
 10.9800     4.5295   0.197601   4.3625   0.103245   0.1540
 11.0000     6.3880   0.328462   5.1418   0.140387   0.6448
 11.0200     4.6413   0.247292   5.3281   0.077893   1.2863
 11.0400     5.6595   0.241882   4.2739   0.069176   0.5642
 11.0600     4.8051   0.269889   5.6167   0.122057  -0.0075
 11.0800     5.4744   0.308924   5.6431   0.078839   0.0792
 11.1000     5.8183   0.253890   4.3636   0.111614   0.9461
 11.1200     3.8275   0.227277   5.9380   0.114767   1.4901
 11.1400     6.4076   0.346639   5.4098   0.052989  -0.8707
 11.1600     6.0942   0.359804   5.9040   0.114520   0.9020
 11.1800     4.2391   0.247993   5.8502   0.111617  -0.8072
 11.2000     4.0562   0.195103   4.8100   0.126569  -0.9012
 11.2200     5.2711   0.266828   5.0621   0.191759   0.6915
 11.2400     4.2272   0.169567   4.0113   0.102779  -0.7531
 11.2600     5.5483   0.266915   4.8108   0.144553   0.3424
 11.2800     5.1716   0.217321   4.2022   0.123922   1.1787
 11.3000     4.4915   0.258041   5.7451   0.095900  -1.3770
 11.3200     6.6383   0.269498   4.0597   0.129171   0.4292
 11.3400     5.9703   0.344896   5.7768   0.084275  -1.3697
 11.3600     4.6321   0.257773   5.5649   0.144205  -1.4639
 11.3800     4.7890   0.259558   5.4199   0.095499  -0.1160
 11.4000     5.1343   0.224314   4.3690   0.114056   1.0469
 11.4200     6.6394   0.292955   4.4124   0.080184   0.7504
 11.4400     5.1479   0.244936   4.7580   0.126208  -0.8738
 11.4600     5.3739   0.283269   5.2712   0.112227  -0.3381
 11.4800     6.4426   0.325623   5.0542   0.125146   0.6798
 11.5000     6.5904   0.315512   4.7874   0.108485  -1.4665
 11.5200     5.8206   0.354484   6.0902   0.111348   1.2460
 11.5400     5.0244   0.288789   5.7477   0.078945  -0.7852
 11.5600     4.3915   0.254989   5.8065   0.110473   0.9530
 11.5800     6.5223   0.321356   4.9270   0.099011  -0.9786
 11.6000     6.5166   0.387196   5.9417   0.133808   1.4226
 11.6200     3.8749   0.158084   4.0797   0.183224  -0.5123
 11.6400     6.2438   0.291717   4.6721   0.091247  -1.1272
 11.6600     5.0407   0.242823   4.8172   0.145732  -1.4123
 11.6800     6.5959   0.309473   4.6919   0.116529   1.2327
 11.7000     3.8903   0.177535   4.5636   0.099004   0.5590
 11.7200     6.7006   0.337756   5.0407   0.077808  -1.3227
 11.7400     6.8295   0.365854   5.3569   0.162733  -0.5223
 11.7600     5.5279   0.244702   4.4267   0.122072   1.4436
 11.7800     5.9517   0.299487   5.0319   0.146919  -0.7441
 11.8000     3.8314   0.165493   4.3193   0.149352  -0.1576
 11.8200     4.6788   0.198119   4.2344   0.109616  -1.4401
 11.8400     5.6410   0.305176   5.4100   0.105854   0.0567
 11.8600     6.1521   0.333253   5.4169   0.111526  -1.2661
 11.8800     6.5633   0.280411   4.2724   0.159507   0.8864
 11.9000     6.6149   0.352537   5.3295   0.085177  -0.3755
 11.9200     4.5602   0.257330   5.6429   0.114026   1.2803
 11.9400     6.1806   0.349286   5.6514   0.122251   1.1437
 11.9600     3.8817   0.227097   5.8505   0.118517   1.0480
 11.9800     4.1013   0.210710   5.1376   0.099134   0.8062
 12.0000    25.6852   0.252013   0.9812   0.162295  -0.1272
 12.0200    16.6372   0.257940   1.5504   0.145333  -0.2949
 12.0400    24.2580   0.283282   1.1678   0.101016   1.4677
 12.0600    27.6416   0.415426   1.5029   0.130374   0.8755
 12.0800    23.5200   0.320874   1.3643   0.177198   1.0795
 12.1000    19.2404   0.312942   1.6265   0.160986   1.3076
 12.1200    20.8469   0.367090   1.7609   0.079281  -0.8908
 12.1400    17.1499   0.262852   1.5327   0.097587   1.1515
 12.1600    28.9248   0.307314   1.0625   0.219919  -1.0683
 12.1800    25.1505   0.261439   1.0395   0.160986  -0.2734
 12.2000    19.1161   0.336472   1.7602   0.134049   0.9668
 12.2200    16.4003   0.259010   1.5793   0.094187   1.1318
 12.2400    23.8448   0.262863   1.1024   0.131460  -1.0622
 12.2600    29.6984   0.467576   1.5744   0.149658   0.0372
 12.2800    21.7887   0.286610   1.3154   0.113208   0.3174
 12.3000    29.2001   0.443252   1.5180   0.128455   0.7523
 12.3200    24.5548   0.406085   1.6538   0.152879   0.2380
 12.3400    25.9499   0.395924   1.5257   0.048174  -0.0846
 12.3600    18.0146   0.162411   0.9016   0.148584  -0.6209
 12.3800    26.1202   0.434475   1.6634   0.097751   0.9947
 12.4000    19.2957   0.183202   0.9494   0.175149  -0.0378
 12.4200    26.7686   0.289174   1.0803   0.169656  -0.9743
 12.4400    27.6208   0.231976   0.8399   0.005918   1.3469
 12.4600    26.5513   0.248615   0.9364   0.087637  -0.0625
 12.4800    26.8337   0.356117   1.3271   0.109260   0.9635
 12.5000    17.2178   0.228192   1.3253   0.124874  -1.1204
 12.5200    25.9835   0.313389   1.2061   0.111266   1.2914
 12.5400    25.0575   0.351248   1.4018   0.121517   1.0332
 12.5600    20.2074   0.258152   1.2775   0.080974  -0.8781
 12.5800    20.7836   0.223362   1.0747   0.038841   0.1364
 12.6000    27.6913   0.364788   1.3173   0.061178  -0.6559
 12.6200    20.4942   0.335384   1.6365   0.196270   0.4599
 12.6400    27.5277   0.387114   1.4063   0.000000   0.5605
 12.6600    24.3745   0.285353   1.1707   0.146309   1.0790
 12.6800    22.2963   0.258369   1.1588   0.202332  -0.3786
 12.7000    28.3333   0.393388   1.3884   0.176984  -0.4356
 12.7200    22.3293   0.372157   1.6667   0.221821   1.3370
 12.7400    25.8612   0.396792   1.5343   0.141521  -0.2350
 12.7600    23.6587   0.219455   0.9276   0.180352  -1.4337
 12.7800    27.9610   0.331561   1.1858   0.031281  -1.3845
 12.8000    27.8201   0.229110   0.8235   0.183501   0.8134
 12.8200    18.7584   0.275141   1.4668   0.065792   0.2946
 12.8400    30.0878   0.434625   1.4445   0.132773   0.7354
 12.8600    21.4840   0.277802   1.2931   0.066733  -0.8643
 12.8800    20.2266   0.173849   0.8595   0.216718   1.1720
 12.9000    23.7876   0.316523   1.3306   0.032232   1.0256
 12.9200    20.0596   0.185926   0.9269   0.095087  -0.3917
 12.9400    23.7737   0.410012   1.7246   0.108771   0.8007
 12.9600    20.0415   0.247906   1.2370   0.259995   0.3142
 12.9800    19.6037   0.300812   1.5345   0.170874   1.1820
 13.0000    26.7550   0.462052   1.7270   0.219660  -0.9975
 13.0200    27.3488   0.437151   1.5984   0.000000  -0.0846
 13.0400    19.7108   0.351672   1.7842   0.158899  -1.1315
 13.0600    22.1812   0.353802   1.5951   0.219876  -1.3468
 13.0800    27.1369   0.440779   1.6243   0.125782  -0.9290
 13.1000    29.1154   0.324576   1.1148   0.100605   0.1097
 13.1200    20.1026   0.275955   1.3727   0.099474  -0.1598
 13.1400    24.6926   0.362143   1.4666   0.115630   1.0389
 13.1600    24.4956   0.232925   0.9509   0.049111  -1.3106
 13.1800    29.5921   0.379068   1.2810   0.168002   0.7214
 13.2000    27.2068   0.268352   0.9863   0.168542   1.4815
 13.2200    24.6271   0.245003   0.9949   0.042006  -0.0658
 13.2400    21.6531   0.233007   1.0761   0.226030   0.7053
 13.2600    17.1957   0.152411   0.8863   0.143783   0.4220
 13.2800    26.1268   0.218172   0.8351   0.200167  -1.0806
 13.3000    25.6073   0.409494   1.5991   0.157135  -0.5346
 13.3200    28.1723   0.317712   1.1277   0.074605   0.5688
 13.3400    16.7562   0.269760   1.6099   0.164576   1.2534
 13.3600    16.4648   0.240284   1.4594   0.146079   1.3137
 13.3800    19.8718   0.212380   1.0688   0.101195   0.2918
 13.4000    18.0183   0.320176   1.7769   0.100961   0.5923
 13.4200    25.5781   0.459704   1.7973   0.243059  -1.3140
 13.4400    25.5604   0.428321   1.6757   0.243813  -0.7155
 13.4600    27.1936   0.438123   1.6111   0.123667   0.0007
 13.4800    21.5667   0.188500   0.8740   0.178222  -0.1205
 13.5000    29.0935   0.443746   1.5252   0.183222  -0.4196
 13.5200    17.4962   0.252283   1.4419   0.071761   0.2877
 13.5400    24.6142   0.418884   1.7018   0.167119  -0.6722
 13.5600    19.9608   0.202128   1.0126   0.179205   0.1081
 13.5800    19.7941   0.301582   1.5236   0.041422  -0.9685
 13.6000    19.7266   0.323554   1.6402   0.189487  -1.0223
 13.6200    30.8369   0.468574   1.5195   0.053790   0.5962
 13.6400    20.6020   0.225917   1.0966   0.084048  -1.3923
 13.6600    25.6258   0.225369   0.8795   0.109994  -1.0909
 13.6800    30.3136   0.333744   1.1010   0.123924  -0.6041
 13.7000    17.7657   0.222158   1.2505   0.148746  -0.7017
 13.7200    21.3090   0.228768   1.0736   0.015438   0.8561
 13.7400    25.0911   0.408579   1.6284   0.161703   0.9506
 13.7600    24.7830   0.386669   1.5602   0.130068   1.0061
 13.7800    28.5184   0.376868   1.3215   0.100139   0.5938
 13.8000    19.5860   0.331761   1.6939   0.290560  -1.3315
 13.8200    24.7437   0.236424   0.9555   0.105654   0.2042
 13.8400    30.4622   0.388270   1.2746   0.119314  -0.3395
 13.8600    21.0663   0.305080   1.4482   0.104702  -1.2440
 13.8800    22.0168   0.393310   1.7864   0.114315   1.0192
 13.9000    24.4713   0.253213   1.0347   0.102885  -0.4931
 13.9200    23.6136   0.417391   1.7676   0.073841   0.2163
 13.9400    18.5182   0.258323   1.3950   0.211584  -0.9814
 13.9600    19.6087   0.265011   1.3515   0.094082   0.4660
 13.9800    21.5916   0.217065   1.0053   0.129968  -0.7388
 14.0000    31.0432   0.466804   1.5037   0.177441   0.0460
 14.0200    20.0595   0.275601   1.3739   0.150329   0.8702
 14.0400    17.6840   0.298074   1.6856   0.187067  -0.6950
 14.0600    23.8634   0.355809   1.4910   0.154667   1.1483
 14.0800    22.7732   0.244280   1.0727   0.115595   0.0251
 14.1000    22.8457   0.361871   1.5840   0.082028  -1.3627
 14.1200    24.3700   0.333099   1.3668   0.133781   0.5528
 14.1400    21.7034   0.319177   1.4706   0.116651  -0.0500
 14.1600    20.3886   0.349255   1.7130   0.145239   1.4548
 14.1800    20.6042   0.357747   1.7363   0.077119   1.0828
 14.2000    20.0629   0.307448   1.5324   0.171025  -1.0180
 14.2200    22.5882   0.359578   1.5919   0.117534   0.2185
 14.2400    31.5797   0.464791   1.4718   0.160959  -1.1135
 14.2600    21.8713   0.345452   1.5795   0.124485   0.0294
 14.2800    29.6588   0.323342   1.0902   0.280382   1.1399
 14.3000    18.4421   0.258063   1.3993   0.144462   1.1595
 14.3200    26.5389   0.366254   1.3801   0.065170  -1.1015
 14.3400    17.8285   0.252304   1.4152   0.238815  -0.7900
 14.3600    17.4185   0.173063   0.9936   0.150079   0.6192
 14.3800    21.2857   0.169576   0.7967   0.085520   0.5385
 14.4000    25.2345   0.349326   1.3843   0.124457   0.9400
 14.4200    25.9748   0.359354   1.3835   0.129579   1.1640
 14.4400    17.3501   0.160269   0.9237   0.218605   0.8788
 14.4600    23.0079   0.211409   0.9189   0.034003  -0.8382
 14.4800    28.1620   0.381018   1.3530   0.153999  -0.2957
 14.5000    20.0487   0.184284   0.9192   0.157613   1.2384
 14.5200    22.7143   0.186837   0.8226   0.035511  -1.1825
 14.5400    20.1971   0.295572   1.4634   0.097888  -0.3473
 14.5600    21.7821   0.340927   1.5652   0.179711   0.6641
 14.5800    31.9707   0.313624   0.9810   0.131645  -0.2956
 14.6000    30.1683   0.517856   1.7166   0.114236  -1.3797
 14.6200    25.5796   0.357481   1.3975   0.082313  -0.9366
 14.6400    29.9146   0.335703   1.1222   0.166808   1.1205
 14.6600    18.8830   0.204457   1.0828   0.154559  -1.4728
 14.6800    20.8100   0.303113   1.4566   0.075821   1.0564
 14.7000    30.2133   0.309521   1.0245   0.199539  -0.9976
 14.7200    24.5695   0.383427   1.5606   0.184903   1.3646
 14.7400    26.4822   0.393048   1.4842   0.212720  -1.3590
 14.7600    27.6143   0.432701   1.5669   0.064969  -0.3185
 14.7800    19.1413   0.270614   1.4138   0.122608  -0.9768
 14.8000    21.0289   0.313659   1.4916   0.247442   0.2038
 14.8200    24.6357   0.404801   1.6431   0.260333   1.1921
 14.8400    29.2198   0.516936   1.7691   0.174456   1.3821
 14.8600    25.9471   0.246676   0.9507   0.121027   0.9242
 14.8800    19.8594   0.198551   0.9998   0.120446  -1.4871
 14.9000    23.2486   0.345146   1.4846   0.075152  -0.7244
 14.9200    27.1646   0.425709   1.5671   0.044246  -0.8858
 14.9400    23.5215   0.276073   1.1737   0.241528   1.3494
 14.9600    27.0147   0.390818   1.4467   0.130862  -0.1561
 14.9800    28.3293   0.453163   1.5996   0.158972  -1.4196
 15.0000    25.0729   0.433544   1.7291   0.070059   0.6227
 15.0200    20.3723   0.216809   1.0642   0.156680   0.2492
 15.0400    17.4525   0.226854   1.2998   0.095021   0.6336
 15.0600    25.9458   0.316695   1.2206   0.182757  -0.6470
 15.0800    27.0431   0.358303   1.3249   0.081967  -1.1389
 15.1000    22.2404   0.367147   1.6508   0.155610   1.0969
 15.1200    17.9731   0.280383   1.5600   0.161628  -1.0822
 15.1400    21.2801   0.318792   1.4981   0.166902  -0.9091
 15.1600    29.9705   0.512618   1.7104   0.165858   0.6067
 15.1800    26.5845   0.230020   0.8652   0.232584   0.2116
 15.2000    24.1599   0.321342   1.3301   0.212469  -0.5162
 15.2200    26.0658   0.335300   1.2864   0.211052   0.9440
 15.2400    26.9054   0.315520   1.1727   0.158416   0.3625
 15.2600    27.6022   0.449475   1.6284   0.166171   0.4098
 15.2800    31.0010   0.252782   0.8154   0.172715   1.4967
 15.3000    31.3642   0.518878   1.6544   0.169694   1.0120
 15.3200    31.6410   0.380596   1.2029   0.192748  -1.4177
 15.3400    20.2439   0.298097   1.4725   0.119803  -0.9531
 15.3600    30.7444   0.307507   1.0002   0.153718   0.2662
 15.3800    26.8669   0.219981   0.8188   0.145122   1.0980
 15.4000    25.1444   0.244171   0.9711   0.064852  -0.0856
 15.4200    19.2157   0.331790   1.7267   0.183480  -0.3950
 15.4400    29.3029   0.500146   1.7068   0.140344   0.0807
 15.4600    19.3242   0.232914   1.2053   0.249023  -1.0292
 15.4800    22.9027   0.380793   1.6627   0.110051  -1.1525
 15.5000    25.6902   0.379906   1.4788   0.125196  -0.2497
 15.5200    20.7169   0.311338   1.5028   0.153840   1.0991
 15.5400    27.0907   0.387958   1.4321   0.187492   1.1533
 15.5600    24.2176   0.204856   0.8459   0.100215   1.2214
 15.5800    26.4839   0.283596   1.0708   0.039646  -0.3918
 15.6000    25.7712   0.381767   1.4814   0.257489  -1.1629
 15.6200    24.6287   0.343657   1.3953   0.179102   0.5465
 15.6400    23.6040   0.338960   1.4360   0.218918   0.0749
 15.6600    32.3055   0.283098   0.8763   0.147051  -0.1761
 15.6800    28.4652   0.366344   1.2870   0.133671  -0.0650
 15.7000    19.0151   0.169572   0.8918   0.161618  -1.4925
 15.7200    27.6271   0.417116   1.5098   0.051653  -0.4314
 15.7400    19.0462   0.269417   1.4145   0.195482   0.8401
 15.7600    25.3429   0.266705   1.0524   0.195642   0.7698
 15.7800    28.0490   0.327812   1.1687   0.218567   0.8883
 15.8000    29.5251   0.358345   1.2137   0.103656   0.6505
 15.8200    31.5518   0.436780   1.3843   0.177800  -1.2606
 15.8400    23.2350   0.353201   1.5201   0.201971   0.7417
 15.8600    31.1124   0.516006   1.6585   0.078252  -1.1025
 15.8800    23.8197   0.395998   1.6625   0.171475  -0.5100
 15.9000    18.8012   0.333705   1.7749   0.100244  -1.1786
 15.9200    31.2431   0.256560   0.8212   0.142884  -0.8147
 15.9400    24.8070   0.312449   1.2595   0.201577   1.0265
 15.9600    30.4201   0.429755   1.4127   0.221798  -0.6535
 15.9800    24.3911   0.419707   1.7207   0.211678   0.4129
 16.0000    30.8125   0.307138   0.9968   0.127475   0.9378
 16.0200    24.5162   0.396128   1.6158   0.167483   1.2766
 16.0400    31.4858   0.529735   1.6825   0.301286  -0.9649
 16.0600    25.7990   0.318861   1.2359   0.155698   0.3792
 16.0800    24.6451   0.337449   1.3692   0.123542  -1.1651
 16.1000    31.2393   0.502065   1.6072   0.174835  -0.5088
 16.1200    30.8566   0.471622   1.5284   0.109063  -0.5051
 16.1400    23.7535   0.315473   1.3281   0.196972  -0.6983
 16.1600    23.9180   0.327842   1.3707   0.160835  -0.8873
 16.1800    18.9423   0.185910   0.9815   0.181707  -0.6302
 16.2000    30.6094   0.387733   1.2667   0.159272  -1.0521
 16.2200    26.7026   0.389199   1.4575   0.197117  -0.2227
 16.2400    22.7443   0.352170   1.5484   0.258086  -0.5584
 16.2600    30.5597   0.292643   0.9576   0.249161  -0.0707
 16.2800    28.7561   0.450241   1.5657   0.122888   0.5933
 16.3000    24.5974   0.230579   0.9374   0.270587  -0.8763
 16.3200    22.6380   0.271588   1.1997   0.056038   0.7609
 16.3400    23.1386   0.196267   0.8482   0.265106   0.7425
 16.3600    30.8610   0.380816   1.2340   0.213771  -1.2716
 16.3800    29.0646   0.434850   1.4962   0.077533   0.4245
 16.4000    29.1238   0.418257   1.4361   0.109247  -0.9087
 16.4200    31.5351   0.523429   1.6598   0.258758   1.1823
 16.4400    30.1075   0.367229   1.2197   0.193642  -1.1133
 16.4600    31.8849   0.500094   1.5684   0.185385   1.4057
 16.4800    21.1838   0.278319   1.3138   0.161963   0.8410
 16.5000    19.9229   0.351421   1.7639   0.172574   0.3478
 16.5200    23.7197   0.253069   1.0669   0.263781  -0.1097
 16.5400    22.0218   0.393607   1.7874   0.267545   1.4066
 16.5600    27.9098   0.296142   1.0611   0.175463  -1.2150
 16.5800    24.8288   0.350378   1.4112   0.107820  -0.6238
 16.6000    31.7734   0.557980   1.7561   0.198574   0.9029
 16.6200    30.5794   0.410468   1.3423   0.126708  -1.0538
 16.6400    23.4018   0.223876   0.9567   0.119290  -0.0595
 16.6600    19.2726   0.336529   1.7462   0.251851   0.3360
 16.6800    21.1082   0.316211   1.4980   0.069747   1.2999
 16.7000    29.5983   0.421964   1.4256   0.059862   1.2074
 16.7200    24.0814   0.204494   0.8492   0.138480  -0.5104
 16.7400    30.8582   0.377406   1.2230   0.246951   0.2715
 16.7600    25.9945   0.424884   1.6345   0.206141  -0.7639
 16.7800    20.7491   0.310325   1.4956   0.156917   0.6165
 16.8000    30.3879   0.478087   1.5733   0.085899   0.8731
 16.8200    30.4011   0.331643   1.0909   0.124924  -1.3206
 16.8400    33.4497   0.411598   1.2305   0.116467  -0.5886
 16.8600    21.6271   0.272658   1.2607   0.160757  -0.7067
 16.8800    33.5823   0.346101   1.0306   0.242114  -0.2195
 16.9000    28.0423   0.295432   1.0535   0.199120  -1.1956
 16.9200    31.0050   0.441147   1.4228   0.265891   1.3741
 16.9400    27.6582   0.341765   1.2357   0.144577   0.6413
 16.9600    21.1202   0.341735   1.6180   0.119506   0.4450
 16.9800    25.3914   0.360854   1.4212   0.115640   0.9565
 17.0000    24.8684   0.250765   1.0084   0.182317  -0.1176
 17.0200    33.2998   0.370266   1.1119   0.188868   0.4149
 17.0400    19.3588   0.347585   1.7955   0.132503  -0.2196
 17.0600    25.0555   0.268616   1.0721   0.189669  -1.4474
 17.0800    22.3556   0.297222   1.3295   0.195649   0.7939
 17.1000    30.4873   0.498996   1.6367   0.250522   0.7300
 17.1200    24.2311   0.223909   0.9241   0.116487   0.6163
 17.1400    23.8275   0.376658   1.5808   0.121875   0.1903
 17.1600    24.9884   0.322876   1.2921   0.163994   0.2134
 17.1800    30.8943   0.537874   1.7410   0.197331   0.1558
 17.2000    23.7507   0.389539   1.6401   0.167298   0.0451
 17.2200    27.0028   0.279815   1.0362   0.275084  -0.4406
 17.2400    28.5610   0.408327   1.4297   0.135885  -1.4127
 17.2600    33.9588   0.449436   1.3235   0.196754   1.0819
 17.2800    22.7244   0.247513   1.0892   0.181950  -0.4069
 17.3000    25.6311   0.290345   1.1328   0.220895   0.9820
 17.3200    29.4104   0.516629   1.7566   0.076877  -0.6281
 17.3400    31.3833   0.472998   1.5072   0.169470   1.1451
 17.3600    23.0950   0.184343   0.7982   0.161969   0.0311
 17.3800    31.6460   0.525538   1.6607   0.200438   0.9129
 17.4000    24.5788   0.368627   1.4998   0.184749  -0.8220
 17.4200    27.3371   0.260962   0.9546   0.135872   0.6413
 17.4400    26.2753   0.448214   1.7058   0.113017   0.0945
 17.4600    29.9390   0.282938   0.9451   0.161230   1.0222
 17.4800    22.0386   0.254666   1.1555   0.146969  -0.3861
 17.5000    24.9871   0.287357   1.1500   0.206860  -1.1984
 17.5200    21.3368   0.194910   0.9135   0.168659  -1.1758
 17.5400    19.8876   0.223820   1.1254   0.174987  -0.4173
 17.5600    20.1361   0.310276   1.5409   0.177865   1.0328
 17.5800    28.4297   0.229352   0.8067   0.306648   1.3083
 17.6000    27.3093   0.368757   1.3503   0.182861   0.3201
 17.6200    20.3529   0.262949   1.2920   0.221281   0.6700
 17.6400    34.3091   0.385909   1.1248   0.100892   0.3866
 17.6600    25.2396   0.436687   1.7302   0.120276  -0.5510
 17.6800    20.7026   0.250637   1.2107   0.196061   1.1159
 17.7000    31.9017   0.433220   1.3580   0.214078   0.5447
 17.7200    22.4830   0.313126   1.3927   0.259008  -0.7914
 17.7400    27.0122   0.449399   1.6637   0.199607  -1.1827
 17.7600    23.0517   0.208756   0.9056   0.169892   1.0498
 17.7800    28.8039   0.374329   1.2996   0.076033   0.1108
 17.8000    24.8269   0.343086   1.3819   0.124816   0.4924
 17.8200    23.4678   0.206285   0.8790   0.050313   1.2316
 17.8400    23.7766   0.201603   0.8479   0.148408   0.0728
 17.8600    29.1276   0.508969   1.7474   0.181353  -1.1399
 17.8800    23.8775   0.357373   1.4967   0.375816   1.2225
 17.9000    24.0642   0.385449   1.6018   0.109310   0.2222
 17.9200    23.5488   0.294441   1.2503   0.081616   0.5766
 17.9400    29.8884   0.507712   1.6987   0.133354   0.8359
 17.9600    31.5459   0.306088   0.9703   0.042377  -1.2036
 17.9800    32.0504   0.304261   0.9493   0.089401  -0.6175
 18.0000    33.1285   0.573853   1.7322   0.251284  -1.1679
 18.0200    21.5602   0.287052   1.3314   0.094045   1.2537
 18.0400    21.7628   0.258800   1.1892   0.221589  -0.7947
 18.0600    31.0538   0.382005   1.2301   0.226252  -0.1887
 18.0800    22.8769   0.329650   1.4410   0.110792  -0.8101
 18.1000    31.3756   0.265963   0.8477   0.239573  -1.2861
 18.1200    22.9208   0.227684   0.9934   0.262158   1.3656
 18.1400    34.2404   0.365601   1.0677   0.262385  -0.9360
 18.1600    29.7236   0.274338   0.9230   0.213846  -0.0409
 18.1800    31.2622   0.364833   1.1670   0.125553   1.0034
 18.2000    23.8831   0.382961   1.6035   0.149946  -1.4809
 18.2200    23.3735   0.287378   1.2295   0.243994  -0.2314
 18.2400    26.4716   0.261888   0.9893   0.207076  -0.7448
 18.2600    21.0431   0.216050   1.0267   0.274414   0.0004
 18.2800    25.6394   0.306974   1.1973   0.209660   1.1234
 18.3000    27.6622   0.341213   1.2335   0.199769  -0.6411
 18.3200    28.8499   0.295426   1.0240   0.173171   1.1701
 18.3400    27.7367   0.346933   1.2508   0.056903   0.1408
 18.3600    25.8233   0.439411   1.7016   0.169179  -1.1099
 18.3800    22.9112   0.247926   1.0821   0.171905  -0.8375
 18.4000    26.2932   0.318807   1.2125   0.159981  -0.2165
 18.4200    34.8113   0.619190   1.7787   0.125381  -0.3722
 18.4400    25.8401   0.293793   1.1370   0.261602   1.1664
 18.4600    30.7152   0.358651   1.1677   0.188958  -0.9313
 18.4800    20.2673   0.290075   1.4312   0.238013   0.5092
 18.5000    24.3092   0.359573   1.4792   0.216897  -1.1173
 18.5200    21.9583   0.189268   0.8619   0.247639  -0.4136
 18.5400    28.3662   0.445847   1.5718   0.214201  -0.7598
 18.5600    28.5917   0.454864   1.5909   0.178391  -1.3542
 18.5800    28.1636   0.423531   1.5038   0.271003  -0.7901
 18.6000    34.4440   0.416627   1.2096   0.122367  -1.4207
 18.6200    20.7015   0.255366   1.2336   0.174943   0.4860
 18.6400    29.3568   0.278255   0.9478   0.058193  -0.8650
 18.6600    29.4985   0.493001   1.6713   0.278896   0.6972
 18.6800    33.1944   0.591108   1.7807   0.109438   0.8830
 18.7000    25.5009   0.243102   0.9533   0.203746   0.3236
 18.7200    34.6833   0.471163   1.3585   0.136115   0.2435
 18.7400    28.3491   0.464419   1.6382   0.243575  -0.4836
 18.7600    32.7737   0.449125   1.3704   0.066968   0.7462
 18.7800    25.5256   0.369089   1.4460   0.326166   1.4603
 18.8000    29.7344   0.304185   1.0230   0.103195   0.2652
 18.8200    30.9936   0.475652   1.5347   0.125836   0.6389
 18.8400    35.3044   0.389596   1.1035   0.193691   0.0940
 18.8600    29.4138   0.437475   1.4873   0.102615  -1.0874
 18.8800    30.3468   0.280898   0.9256   0.258367  -0.8666
 18.9000    32.0723   0.291851   0.9100   0.202408  -0.3485
 18.9200    35.3132   0.502294   1.4224   0.396934   0.4592
 18.9400    23.0268   0.256295   1.1130   0.119780  -0.2330
 18.9600    31.6590   0.361811   1.1428   0.207758   0.2471
 18.9800    30.0638   0.473471   1.5749   0.222236  -0.2685
 19.0000    24.2882   0.379161   1.5611   0.151262   1.1916
 19.0200    22.2249   0.210946   0.9491   0.188085   0.0932
 19.0400    30.6287   0.421426   1.3759   0.302735  -0.2198
 19.0600    34.3515   0.296106   0.8620   0.128383   0.8274
 19.0800    28.3865   0.399937   1.4089   0.246572  -0.2442
 19.1000    23.4751   0.356403   1.5182   0.120196   1.0281
 19.1200    22.3037   0.213212   0.9560   0.304920   0.3195
 19.1400    31.7095   0.389444   1.2282   0.082375   0.8003
 19.1600    32.6768   0.504484   1.5439   0.114880  -0.0468
 19.1800    28.0606   0.245449   0.8747   0.181229  -0.1111
 19.2000    22.1021   0.259559   1.1744   0.257917   0.4959
 19.2200    31.3848   0.275691   0.8784   0.124462  -0.5383
 19.2400    34.6215   0.594378   1.7168   0.184380  -0.3374
 19.2600    28.1651   0.298754   1.0607   0.294330   0.6018
 19.2800    35.5523   0.407076   1.1450   0.264827  -0.7260
 19.3000    21.6768   0.183391   0.8460   0.239147   0.9055
 19.3200    33.6405   0.403704   1.2001   0.148833   1.4498
 19.3400    30.1802   0.366828   1.2155   0.214453   0.9151
 19.3600    27.9160   0.292639   1.0483   0.199118  -0.3764
 19.3800    31.3951   0.361145   1.1503   0.136506   1.4630
 19.4000    24.7357   0.285883   1.1558   0.173518  -0.3977
 19.4200    24.5533   0.305911   1.2459   0.202339  -0.3399
 19.4400    31.8590   0.378327   1.1875   0.215257   0.7471
 19.4600    23.2975   0.197397   0.8473   0.327662   0.3072
 19.4800    34.0417   0.363062   1.0665   0.132328  -0.3523
 19.5000    34.8253   0.595095   1.7088   0.129926  -1.4140
 19.5200    33.0731   0.448289   1.3554   0.174400  -0.6572
 19.5400    21.8577   0.382577   1.7503   0.201792   0.9297
 19.5600    32.3388   0.417292   1.2904   0.197383   0.1416
 19.5800    27.0909   0.467030   1.7239   0.283462   1.4239
 19.6000    24.1842   0.216020   0.8932   0.116498   0.0704
 19.6200    25.8216   0.373821   1.4477   0.082063   0.0951
 19.6400    30.6006   0.277928   0.9082   0.181280  -1.1922
 19.6600    35.9361   0.538296   1.4979   0.143946  -0.2827
 19.6800    25.1893   0.359273   1.4263   0.102138  -0.6230
 19.7000    21.4298   0.290924   1.3576   0.290208  -1.2463
 19.7200    32.6508   0.536491   1.6431   0.217312  -0.2131
 19.7400    24.5668   0.219956   0.8953   0.147538   0.0447
 19.7600    23.2174   0.362125   1.5597   0.206951   0.3624
 19.7800    23.3659   0.278750   1.1930   0.258296  -0.7778
 19.8000    33.1681   0.351422   1.0595   0.263682  -1.4618
 19.8200    30.5042   0.544377   1.7846   0.242433  -0.5668
 19.8400    36.1531   0.517083   1.4303   0.136198  -0.1587
 19.8600    32.4905   0.544398   1.6756   0.236625  -0.4706
 19.8800    27.3212   0.271107   0.9923   0.222129  -0.1527
 19.9000    35.0672   0.589927   1.6823   0.255986  -0.1439
 19.9200    23.3431   0.404172   1.7314   0.228071  -0.3384
 19.9400    30.3243   0.383193   1.2637   0.180448  -0.5298
 19.9600    35.5767   0.580574   1.6319   0.181616  -0.0995
 19.9800    25.8317   0.208578   0.8075   0.225330   1.4614
 20.0000    26.8603   0.361700   1.3466   0.161852   0.9835
